# xPDFsuite Configuration #
[PDF]
wavelength = 0.7107
dataformat = twotheta
inputfile = T2_0p7boro_15hrs_powder.xye
backgroundfile = fitted_data.txt
mode = xray
bgscale = 0.995
composition = Au
outputtype = sq
qmaxinst = 15.0
qmin = 2.4
qmax = 10.0
rmax = 30.0
rmin = 0.0
rstep = 0.01
rpoly = 0.7

[Misc]
inputdir = /Users/ansoan/Documents/Materiale_Kemi/Postdoc/Research/2T_2BT_totalscattering_Oxford/2T_0p7boro_15hrs/plots_red
savedir = /Users/ansoan/Documents/Materiale_Kemi/Postdoc/Research/2T_2BT_totalscattering_Oxford/Processed_Files
backgroundfilefull = /Users/ansoan/Documents/Materiale_Kemi/Postdoc/Research/2T_2BT_totalscattering_Oxford/fitted_data.txt

#### start data
#S 1
#L Q($\AA^{-1}$)  S(a.u.)
2.40126 1.13042
2.40255 1.15561
2.40384 1.17072
2.40513 1.13019
2.40643 1.08596
2.40772 1.0555
2.40901 1.02952
2.4103 1.06446
2.41159 1.11207
2.41289 1.10245
2.41418 1.09406
2.41547 1.10911
2.41676 1.13125
2.41806 1.11844
2.41935 1.06149
2.42064 1.06412
2.42193 1.0665
2.42323 1.11249
2.42452 1.16625
2.42581 1.1491
2.4271 1.15809
2.42839 1.19699
2.42969 1.19596
2.43098 1.16677
2.43227 1.13687
2.43356 1.11424
2.43486 1.07406
2.43615 1.14208
2.43744 1.14447
2.43873 1.1678
2.44003 1.20222
2.44132 1.20449
2.44261 1.14954
2.4439 1.12173
2.44519 1.09506
2.44649 1.07568
2.44778 1.08022
2.44907 1.11421
2.45036 1.15627
2.45166 1.15619
2.45295 1.16864
2.45424 1.17413
2.45553 1.12948
2.45683 1.09076
2.45812 1.07672
2.45941 1.05211
2.4607 1.02118
2.46199 1.06094
2.46329 1.05314
2.46458 1.04741
2.46587 1.04018
2.46716 1.00925
2.46846 0.967541
2.46975 0.940626
2.47104 0.915323
2.47233 0.884535
2.47363 0.894921
2.47492 0.946689
2.47621 0.981501
2.4775 0.956645
2.47879 0.996874
2.48009 0.995667
2.48138 0.951236
2.48267 0.925178
2.48396 0.945696
2.48526 0.925233
2.48655 0.998522
2.48784 1.05183
2.48913 1.06086
2.49043 1.06974
2.49172 1.08266
2.49301 1.05877
2.4943 1.03464
2.49559 1.01225
2.49689 0.965699
2.49818 0.943519
2.49947 0.958352
2.50076 0.988393
2.50206 0.997396
2.50335 1.00935
2.50464 0.966002
2.50593 0.929176
2.50723 0.915484
2.50852 0.902039
2.50981 0.860806
2.5111 0.871947
2.51239 0.878382
2.51369 0.87409
2.51498 0.883538
2.51627 0.876948
2.51756 0.837712
2.51886 0.834861
2.52015 0.820895
2.52144 0.781084
2.52273 0.77728
2.52403 0.798902
2.52532 0.829475
2.52661 0.859502
2.5279 0.838982
2.52919 0.851993
2.53049 0.83672
2.53178 0.832981
2.53307 0.84968
2.53436 0.86639
2.53566 0.856315
2.53695 0.903951
2.53824 0.892855
2.53953 0.929363
2.54083 0.956573
2.54212 0.941958
2.54341 0.924283
2.5447 0.938242
2.54599 0.918665
2.54729 0.911832
2.54858 0.91004
2.54987 0.917348
2.55116 0.932815
2.55246 0.932532
2.55375 0.946968
2.55504 0.931559
2.55633 0.929004
2.55763 0.937951
2.55892 0.943542
2.56021 0.943588
2.5615 0.99854
2.56279 0.955377
2.56409 0.962987
2.56538 1.00182
2.56667 1.01364
2.56796 0.979727
2.56926 0.972751
2.57055 0.949399
2.57184 0.936627
2.57313 0.930099
2.57443 0.945109
2.57572 0.960185
2.57701 0.940494
2.5783 0.956943
2.57959 0.969475
2.58089 0.979575
2.58218 0.974436
2.58347 0.9709
2.58476 0.978173
2.58606 0.969866
2.58735 0.990913
2.58864 1.01947
2.58993 1.02492
2.59123 1.0387
2.59252 1.06005
2.59381 1.05794
2.5951 1.04782
2.59639 1.02599
2.59769 1.0225
2.59898 1.02721
2.60027 1.04901
2.60156 1.06879
2.60286 1.02572
2.60415 1.0815
2.60544 1.09367
2.60673 1.10207
2.60803 1.09816
2.60932 1.09507
2.61061 1.11545
2.6119 1.12557
2.61319 1.17196
2.61449 1.1911
2.61578 1.217
2.61707 1.24666
2.61836 1.26707
2.61966 1.27832
2.62095 1.2794
2.62224 1.30449
2.62353 1.31341
2.62483 1.34174
2.62612 1.37238
2.62741 1.36872
2.6287 1.39286
2.62999 1.39988
2.63129 1.40711
2.63258 1.39324
2.63387 1.37835
2.63516 1.3845
2.63646 1.4108
2.63775 1.45214
2.63904 1.4639
2.64033 1.46041
2.64163 1.45858
2.64292 1.46529
2.64421 1.47627
2.6455 1.48068
2.64679 1.48189
2.64809 1.49599
2.64938 1.52463
2.65067 1.54832
2.65196 1.55597
2.65326 1.5589
2.65455 1.57971
2.65584 1.58155
2.65713 1.59196
2.65843 1.59119
2.65972 1.60163
2.66101 1.64363
2.6623 1.66272
2.66359 1.65805
2.66489 1.65936
2.66618 1.66072
2.66747 1.67622
2.66876 1.70062
2.67006 1.71222
2.67135 1.75388
2.67264 1.76912
2.67393 1.77608
2.67523 1.79131
2.67652 1.80282
2.67781 1.80244
2.6791 1.82055
2.68039 1.82583
2.68169 1.82072
2.68298 1.82134
2.68427 1.82627
2.68556 1.83099
2.68686 1.82743
2.68815 1.78457
2.68944 1.785
2.69073 1.76466
2.69203 1.74053
2.69332 1.72506
2.69461 1.72073
2.6959 1.71951
2.69719 1.68393
2.69849 1.64439
2.69978 1.6285
2.70107 1.62205
2.70236 1.59636
2.70366 1.54526
2.70495 1.55077
2.70624 1.54201
2.70753 1.52751
2.70882 1.5046
2.71012 1.48219
2.71141 1.46669
2.7127 1.45251
2.71399 1.43201
2.71529 1.40757
2.71658 1.40817
2.71787 1.40542
2.71916 1.38869
2.72046 1.36836
2.72175 1.3526
2.72304 1.36115
2.72433 1.36718
2.72562 1.37843
2.72692 1.36455
2.72821 1.34136
2.7295 1.37028
2.73079 1.32257
2.73209 1.29073
2.73338 1.2789
2.73467 1.27607
2.73596 1.2777
2.73726 1.2794
2.73855 1.26583
2.73984 1.26466
2.74113 1.25375
2.74242 1.24101
2.74372 1.22727
2.74501 1.20885
2.7463 1.18059
2.74759 1.14136
2.74889 1.15599
2.75018 1.17662
2.75147 1.16561
2.75276 1.14286
2.75406 1.13966
2.75535 1.1475
2.75664 1.12903
2.75793 1.12665
2.75922 1.14015
2.76052 1.14069
2.76181 1.12127
2.7631 1.10724
2.76439 1.14349
2.76569 1.1597
2.76698 1.16841
2.76827 1.17721
2.76956 1.18035
2.77086 1.17486
2.77215 1.17236
2.77344 1.19942
2.77473 1.18967
2.77602 1.17514
2.77732 1.17713
2.77861 1.19319
2.7799 1.20502
2.78119 1.19903
2.78249 1.16323
2.78378 1.15493
2.78507 1.17915
2.78636 1.20456
2.78766 1.21312
2.78895 1.218
2.79024 1.22475
2.79153 1.20653
2.79282 1.18645
2.79412 1.16384
2.79541 1.16115
2.7967 1.18808
2.79799 1.20062
2.79929 1.21649
2.80058 1.20935
2.80187 1.22558
2.80316 1.24084
2.80446 1.22643
2.80575 1.18414
2.80704 1.17564
2.80833 1.16838
2.80962 1.1616
2.81092 1.17865
2.81221 1.19925
2.8135 1.19993
2.81479 1.1894
2.81609 1.18891
2.81738 1.19362
2.81867 1.18116
2.81996 1.16971
2.82126 1.1778
2.82255 1.2042
2.82384 1.21094
2.82513 1.20303
2.82642 1.20871
2.82772 1.22792
2.82901 1.24539
2.8303 1.24461
2.83159 1.22311
2.83289 1.22584
2.83418 1.22878
2.83547 1.25671
2.83676 1.26344
2.83806 1.27106
2.83935 1.30342
2.84064 1.29395
2.84193 1.28199
2.84322 1.25055
2.84452 1.23696
2.84581 1.23166
2.8471 1.22071
2.84839 1.20746
2.84969 1.23022
2.85098 1.25087
2.85227 1.25731
2.85356 1.21988
2.85486 1.18748
2.85615 1.19721
2.85744 1.20737
2.85873 1.17861
2.86002 1.17935
2.86132 1.1965
2.86261 1.20305
2.8639 1.20018
2.86519 1.20198
2.86649 1.19241
2.86778 1.17518
2.86907 1.14592
2.87036 1.15297
2.87166 1.17209
2.87295 1.17622
2.87424 1.16987
2.87553 1.17095
2.87682 1.18674
2.87812 1.16902
2.87941 1.16161
2.8807 1.18186
2.88199 1.20303
2.88329 1.16576
2.88458 1.158
2.88587 1.20225
2.88716 1.21266
2.88846 1.21576
2.88975 1.22666
2.89104 1.2272
2.89233 1.20604
2.89362 1.16025
2.89492 1.18189
2.89621 1.19728
2.8975 1.1886
2.89879 1.18719
2.90009 1.23616
2.90138 1.24524
2.90267 1.21198
2.90396 1.21468
2.90526 1.21927
2.90655 1.20651
2.90784 1.19127
2.90913 1.21308
2.91042 1.20734
2.91172 1.20874
2.91301 1.24324
2.9143 1.25556
2.91559 1.23177
2.91689 1.21564
2.91818 1.20356
2.91947 1.18152
2.92076 1.1719
2.92206 1.17962
2.92335 1.17986
2.92464 1.16876
2.92593 1.19047
2.92722 1.20493
2.92852 1.18104
2.92981 1.16671
2.9311 1.14824
2.93239 1.12899
2.93369 1.12926
2.93498 1.15688
2.93627 1.19095
2.93756 1.18405
2.93886 1.17586
2.94015 1.16696
2.94144 1.15097
2.94273 1.12965
2.94402 1.10454
2.94532 1.10976
2.94661 1.1258
2.9479 1.14581
2.94919 1.15085
2.95049 1.13237
2.95178 1.11186
2.95307 1.10554
2.95436 1.09028
2.95566 1.07656
2.95695 1.08059
2.95824 1.10161
2.95953 1.1262
2.96082 1.14982
2.96212 1.18054
2.96341 1.16964
2.9647 1.15911
2.96599 1.1549
2.96729 1.15103
2.96858 1.1472
2.96987 1.15657
2.97116 1.16909
2.97246 1.21231
2.97375 1.24423
2.97504 1.25428
2.97633 1.24878
2.97762 1.22335
2.97892 1.21385
2.98021 1.22447
2.9815 1.2321
2.98279 1.23534
2.98409 1.23891
2.98538 1.24172
2.98667 1.22133
2.98796 1.23475
2.98926 1.23331
2.99055 1.23103
2.99184 1.23059
2.99313 1.23239
2.99442 1.23736
2.99572 1.22709
2.99701 1.2363
2.9983 1.24297
2.99959 1.2536
3.00089 1.25086
3.00218 1.22962
3.00347 1.23679
3.00476 1.25608
3.00606 1.25264
3.00735 1.25168
3.00864 1.2655
3.00993 1.27078
3.01122 1.24752
3.01252 1.28004
3.01381 1.29484
3.0151 1.2979
3.01639 1.30559
3.01769 1.31022
3.01898 1.31319
3.02027 1.32899
3.02156 1.2947
3.02286 1.30191
3.02415 1.32807
3.02544 1.34507
3.02673 1.34772
3.02802 1.34392
3.02932 1.33756
3.03061 1.34558
3.0319 1.33556
3.03319 1.32016
3.03449 1.32797
3.03578 1.34968
3.03707 1.35552
3.03836 1.36997
3.03965 1.35313
3.04095 1.35442
3.04224 1.34846
3.04353 1.33207
3.04482 1.31245
3.04612 1.30214
3.04741 1.34314
3.0487 1.35985
3.04999 1.37231
3.05129 1.36677
3.05258 1.34917
3.05387 1.33665
3.05516 1.33814
3.05645 1.32074
3.05775 1.32674
3.05904 1.32759
3.06033 1.32284
3.06162 1.32272
3.06292 1.3299
3.06421 1.31402
3.0655 1.3303
3.06679 1.30988
3.06809 1.30735
3.06938 1.32486
3.07067 1.33914
3.07196 1.33241
3.07325 1.34366
3.07455 1.33628
3.07584 1.31138
3.07713 1.31182
3.07842 1.30911
3.07972 1.29159
3.08101 1.33029
3.0823 1.27481
3.08359 1.28963
3.08489 1.2874
3.08618 1.28388
3.08747 1.27722
3.08876 1.2615
3.09005 1.29338
3.09135 1.27263
3.09264 1.27038
3.09393 1.25397
3.09522 1.24101
3.09652 1.24154
3.09781 1.23954
3.0991 1.22331
3.10039 1.23529
3.10169 1.23261
3.10298 1.23455
3.10427 1.24531
3.10556 1.2496
3.10685 1.22816
3.10815 1.26012
3.10944 1.24345
3.11073 1.25706
3.11202 1.25744
3.11332 1.24565
3.11461 1.24965
3.1159 1.25542
3.11719 1.25488
3.11849 1.25784
3.11978 1.24943
3.12107 1.258
3.12236 1.28553
3.12365 1.30022
3.12495 1.28391
3.12624 1.29917
3.12753 1.26707
3.12882 1.24931
3.13012 1.24227
3.13141 1.2274
3.1327 1.21171
3.13399 1.22772
3.13529 1.2081
3.13658 1.20732
3.13787 1.19055
3.13916 1.16696
3.14045 1.15689
3.14175 1.14012
3.14304 1.11053
3.14433 1.0913
3.14562 1.06266
3.14692 1.03732
3.14821 1.01926
3.1495 0.998493
3.15079 0.963947
3.15209 0.964406
3.15338 0.924427
3.15467 0.899085
3.15596 0.891307
3.15725 0.878957
3.15855 0.847867
3.15984 0.851355
3.16113 0.85107
3.16242 0.829676
3.16372 0.829249
3.16501 0.840321
3.1663 0.843345
3.16759 0.846725
3.16889 0.85003
3.17018 0.849254
3.17147 0.862689
3.17276 0.874978
3.17405 0.876291
3.17535 0.868586
3.17664 0.864002
3.17793 0.911772
3.17922 0.896802
3.18052 0.908573
3.18181 0.918367
3.1831 0.916676
3.18439 0.929331
3.18569 0.945448
3.18698 0.913206
3.18827 0.919255
3.18956 0.909177
3.19085 0.892846
3.19215 0.891906
3.19344 0.903758
3.19473 0.897197
3.19602 0.928223
3.19732 0.925877
3.19861 0.912988
3.1999 0.908536
3.20119 0.916527
3.20249 0.926223
3.20378 0.916501
3.20507 0.92433
3.20636 0.920086
3.20765 0.913482
3.20895 0.923566
3.21024 0.950812
3.21153 0.951342
3.21282 0.939045
3.21412 0.941027
3.21541 0.931618
3.2167 0.932433
3.21799 0.935848
3.21929 0.91521
3.22058 0.919951
3.22187 0.934255
3.22316 0.945112
3.22445 0.946687
3.22575 0.941809
3.22704 0.939596
3.22833 0.94747
3.22962 0.945585
3.23092 0.949842
3.23221 0.945886
3.2335 0.959054
3.23479 0.980055
3.23609 0.986212
3.23738 0.973593
3.23867 0.984491
3.23996 0.960989
3.24125 0.950369
3.24255 0.965675
3.24384 0.987879
3.24513 0.994911
3.24642 1.00117
3.24772 0.979975
3.24901 0.978211
3.2503 0.977503
3.25159 0.97006
3.25289 0.9625
3.25418 0.967242
3.25547 0.979656
3.25676 0.976871
3.25805 0.9747
3.25935 0.971104
3.26064 0.95512
3.26193 0.937218
3.26322 0.94604
3.26452 0.951321
3.26581 0.947033
3.2671 0.960785
3.26839 0.950792
3.26969 0.932642
3.27098 0.928938
3.27227 0.92274
3.27356 0.924553
3.27485 0.909324
3.27615 0.897779
3.27744 0.889311
3.27873 0.885294
3.28002 0.888634
3.28132 0.897653
3.28261 0.899362
3.2839 0.896693
3.28519 0.884717
3.28649 0.866945
3.28778 0.848984
3.28907 0.834134
3.29036 0.819437
3.29165 0.823984
3.29295 0.826327
3.29424 0.838533
3.29553 0.843858
3.29682 0.834213
3.29812 0.820333
3.29941 0.80287
3.3007 0.785444
3.30199 0.794824
3.30329 0.807309
3.30458 0.811816
3.30587 0.807566
3.30716 0.797396
3.30845 0.779752
3.30975 0.758641
3.31104 0.749892
3.31233 0.740847
3.31362 0.735423
3.31492 0.741905
3.31621 0.754061
3.3175 0.759747
3.31879 0.769587
3.32009 0.76547
3.32138 0.76423
3.32267 0.764981
3.32396 0.760681
3.32525 0.772323
3.32655 0.796411
3.32784 0.816322
3.32913 0.833643
3.33042 0.844076
3.33172 0.843755
3.33301 0.837434
3.3343 0.850467
3.33559 0.869709
3.33689 0.869129
3.33818 0.869365
3.33947 0.870227
3.34076 0.869656
3.34205 0.870922
3.34335 0.867653
3.34464 0.866748
3.34593 0.858644
3.34722 0.854949
3.34852 0.850367
3.34981 0.841293
3.3511 0.837736
3.35239 0.836478
3.35369 0.841268
3.35498 0.837527
3.35627 0.828048
3.35756 0.821005
3.35885 0.823095
3.36015 0.83203
3.36144 0.812643
3.36273 0.814522
3.36402 0.811094
3.36532 0.805209
3.36661 0.802101
3.3679 0.804355
3.36919 0.813312
3.37048 0.82277
3.37178 0.803942
3.37307 0.798135
3.37436 0.802854
3.37565 0.812789
3.37695 0.8252
3.37824 0.821262
3.37953 0.818119
3.38082 0.823834
3.38212 0.819607
3.38341 0.807046
3.3847 0.794004
3.38599 0.782878
3.38728 0.759539
3.38858 0.759252
3.38987 0.75079
3.39116 0.741593
3.39245 0.732026
3.39375 0.72034
3.39504 0.708736
3.39633 0.708207
3.39762 0.67647
3.39892 0.659008
3.40021 0.655785
3.4015 0.65051
3.40279 0.637585
3.40408 0.637108
3.40538 0.643523
3.40667 0.633897
3.40796 0.627825
3.40925 0.619475
3.41055 0.61611
3.41184 0.623256
3.41313 0.622008
3.41442 0.617886
3.41572 0.61327
3.41701 0.614108
3.4183 0.627512
3.41959 0.646389
3.42088 0.662289
3.42218 0.691455
3.42347 0.700831
3.42476 0.711572
3.42605 0.726925
3.42735 0.745898
3.42864 0.759907
3.42993 0.766378
3.43122 0.800175
3.43252 0.829335
3.43381 0.844297
3.4351 0.866727
3.43639 0.886137
3.43768 0.891083
3.43898 0.886369
3.44027 0.891101
3.44156 0.899529
3.44285 0.900832
3.44415 0.908881
3.44544 0.921413
3.44673 0.925654
3.44802 0.913564
3.44932 0.922653
3.45061 0.918378
3.4519 0.91129
3.45319 0.911282
3.45448 0.908918
3.45578 0.899871
3.45707 0.900074
3.45836 0.889576
3.45965 0.890253
3.46095 0.892721
3.46224 0.880672
3.46353 0.860517
3.46482 0.848679
3.46612 0.849228
3.46741 0.838194
3.4687 0.840614
3.46999 0.835695
3.47128 0.835679
3.47258 0.840684
3.47387 0.838604
3.47516 0.822978
3.47645 0.839541
3.47775 0.838517
3.47904 0.834607
3.48033 0.843606
3.48162 0.860678
3.48292 0.871149
3.48421 0.882576
3.4855 0.902017
3.48679 0.918578
3.48808 0.926216
3.48938 0.928904
3.49067 0.932486
3.49196 0.940194
3.49325 0.951107
3.49455 0.970578
3.49584 0.971701
3.49713 0.979259
3.49842 0.98372
3.49972 0.974015
3.50101 0.95804
3.5023 0.966784
3.50359 0.960971
3.50488 0.962006
3.50618 0.961626
3.50747 0.957175
3.50876 0.950034
3.51005 0.941479
3.51135 0.925356
3.51264 0.912941
3.51393 0.902692
3.51522 0.889779
3.51652 0.880302
3.51781 0.881891
3.5191 0.891525
3.52039 0.87549
3.52168 0.870036
3.52298 0.861278
3.52427 0.850818
3.52556 0.843487
3.52685 0.838282
3.52815 0.826024
3.52944 0.826232
3.53073 0.817818
3.53202 0.818175
3.53332 0.818933
3.53461 0.819287
3.5359 0.822205
3.53719 0.82351
3.53848 0.820499
3.53978 0.819426
3.54107 0.814111
3.54236 0.807275
3.54365 0.806262
3.54495 0.812591
3.54624 0.812033
3.54753 0.820583
3.54882 0.82581
3.55012 0.824666
3.55141 0.828905
3.5527 0.836959
3.55399 0.838244
3.55528 0.835004
3.55658 0.831837
3.55787 0.835898
3.55916 0.836528
3.56045 0.83368
3.56175 0.82887
3.56304 0.822333
3.56433 0.814286
3.56562 0.819316
3.56692 0.830848
3.56821 0.821087
3.5695 0.81206
3.57079 0.81511
3.57208 0.81717
3.57338 0.816396
3.57467 0.829186
3.57596 0.836765
3.57725 0.842281
3.57855 0.845342
3.57984 0.847586
3.58113 0.853174
3.58242 0.86134
3.58372 0.865476
3.58501 0.881324
3.5863 0.896966
3.58759 0.904536
3.58888 0.906078
3.59018 0.909653
3.59147 0.907789
3.59276 0.909235
3.59405 0.90509
3.59535 0.913204
3.59664 0.921803
3.59793 0.919779
3.59922 0.915738
3.60052 0.915782
3.60181 0.915448
3.6031 0.909125
3.60439 0.902724
3.60568 0.90093
3.60698 0.902186
3.60827 0.899092
3.60956 0.893257
3.61085 0.895166
3.61215 0.892722
3.61344 0.883229
3.61473 0.866427
3.61602 0.849563
3.61732 0.846403
3.61861 0.844282
3.6199 0.853356
3.62119 0.859243
3.62248 0.85257
3.62378 0.841285
3.62507 0.83607
3.62636 0.835168
3.62765 0.840514
3.62895 0.838291
3.63024 0.842331
3.63153 0.849959
3.63282 0.860104
3.63412 0.871081
3.63541 0.87612
3.6367 0.873164
3.63799 0.880122
3.63928 0.870229
3.64058 0.863357
3.64187 0.863297
3.64316 0.860864
3.64445 0.854166
3.64575 0.842787
3.64704 0.843982
3.64833 0.849307
3.64962 0.852105
3.65092 0.847786
3.65221 0.837757
3.6535 0.831895
3.65479 0.826496
3.65608 0.814753
3.65738 0.814058
3.65867 0.822049
3.65996 0.832745
3.66125 0.840026
3.66255 0.837502
3.66384 0.834604
3.66513 0.82701
3.66642 0.826747
3.66772 0.827598
3.66901 0.832141
3.6703 0.843854
3.67159 0.844994
3.67288 0.847983
3.67418 0.848316
3.67547 0.855767
3.67676 0.86066
3.67805 0.860437
3.67935 0.864199
3.68064 0.883581
3.68193 0.900013
3.68322 0.910436
3.68452 0.919337
3.68581 0.928265
3.6871 0.937051
3.68839 0.9437
3.68968 0.944219
3.69098 0.955819
3.69227 0.956853
3.69356 0.961891
3.69485 0.967404
3.69615 0.967779
3.69744 0.963675
3.69873 0.964812
3.70002 0.951895
3.70131 0.953741
3.70261 0.959866
3.7039 0.962196
3.70519 0.959874
3.70648 0.958024
3.70778 0.960898
3.70907 0.952741
3.71036 0.944143
3.71165 0.945447
3.71295 0.949128
3.71424 0.948661
3.71553 0.945364
3.71682 0.944742
3.71811 0.952448
3.71941 0.944865
3.7207 0.940685
3.72199 0.944921
3.72328 0.952712
3.72458 0.954559
3.72587 0.943371
3.72716 0.955049
3.72845 0.960896
3.72975 0.955713
3.73104 0.949471
3.73233 0.948546
3.73362 0.94948
3.73491 0.945272
3.73621 0.940239
3.7375 0.94959
3.73879 0.944148
3.74008 0.937821
3.74138 0.938232
3.74267 0.934569
3.74396 0.923904
3.74525 0.9102
3.74655 0.91447
3.74784 0.906043
3.74913 0.897507
3.75042 0.899803
3.75171 0.904252
3.75301 0.893306
3.7543 0.885312
3.75559 0.889127
3.75688 0.879756
3.75818 0.869041
3.75947 0.87082
3.76076 0.881421
3.76205 0.876359
3.76335 0.873463
3.76464 0.883557
3.76593 0.878987
3.76722 0.866284
3.76851 0.862931
3.76981 0.873051
3.7711 0.861955
3.77239 0.860273
3.77368 0.872611
3.77498 0.870018
3.77627 0.862277
3.77756 0.86101
3.77885 0.86137
3.78015 0.842878
3.78144 0.833894
3.78273 0.840887
3.78402 0.834605
3.78531 0.830025
3.78661 0.836708
3.7879 0.842087
3.78919 0.827592
3.79048 0.830635
3.79178 0.839437
3.79307 0.833683
3.79436 0.83478
3.79565 0.844192
3.79695 0.84037
3.79824 0.82953
3.79953 0.839651
3.80082 0.840587
3.80211 0.829569
3.80341 0.829667
3.8047 0.843772
3.80599 0.850492
3.80728 0.837121
3.80858 0.849271
3.80987 0.840718
3.81116 0.837038
3.81245 0.838965
3.81375 0.841707
3.81504 0.843869
3.81633 0.848584
3.81762 0.853342
3.81891 0.848336
3.82021 0.855503
3.8215 0.858759
3.82279 0.854759
3.82408 0.858095
3.82538 0.873655
3.82667 0.864649
3.82796 0.880376
3.82925 0.898105
3.83055 0.907469
3.83184 0.914543
3.83313 0.929162
3.83442 0.941731
3.83571 0.933655
3.83701 0.947722
3.8383 0.948434
3.83959 0.948205
3.84088 0.957169
3.84218 0.971736
3.84347 0.984148
3.84476 0.990179
3.84605 0.999887
3.84735 0.993527
3.84864 0.986258
3.84993 0.985269
3.85122 0.985033
3.85251 0.980982
3.85381 0.984426
3.8551 0.985615
3.85639 0.98542
3.85768 0.980964
3.85898 0.977183
3.86027 0.9796
3.86156 0.981727
3.86285 0.980117
3.86415 0.980306
3.86544 0.979613
3.86673 0.972785
3.86802 0.966909
3.86931 0.964384
3.87061 0.945972
3.8719 0.9525
3.87319 0.964357
3.87448 0.960108
3.87578 0.95646
3.87707 0.956846
3.87836 0.952868
3.87965 0.940533
3.88095 0.933649
3.88224 0.943221
3.88353 0.944201
3.88482 0.942396
3.88611 0.947796
3.88741 0.95836
3.8887 0.955065
3.88999 0.94094
3.89128 0.953384
3.89258 0.956065
3.89387 0.946858
3.89516 0.946307
3.89645 0.958817
3.89775 0.954147
3.89904 0.950666
3.90033 0.953537
3.90162 0.95343
3.90291 0.949916
3.90421 0.941428
3.9055 0.930447
3.90679 0.924191
3.90808 0.916004
3.90938 0.927064
3.91067 0.937961
3.91196 0.935875
3.91325 0.932506
3.91455 0.930823
3.91584 0.917205
3.91713 0.929304
3.91842 0.935763
3.91971 0.938238
3.92101 0.95004
3.9223 0.962096
3.92359 0.960767
3.92488 0.947938
3.92618 0.961214
3.92747 0.969272
3.92876 0.966687
3.93005 0.962242
3.93135 0.968109
3.93264 0.975903
3.93393 0.96739
3.93522 0.973109
3.93651 0.97222
3.93781 0.971234
3.9391 0.962824
3.94039 0.955499
3.94168 0.954622
3.94298 0.958002
3.94427 0.966768
3.94556 0.957986
3.94685 0.94858
3.94815 0.944788
3.94944 0.943127
3.95073 0.935853
3.95202 0.922846
3.95331 0.925542
3.95461 0.929914
3.9559 0.919881
3.95719 0.913534
3.95848 0.90625
3.95978 0.896997
3.96107 0.890046
3.96236 0.884753
3.96365 0.882667
3.96495 0.872497
3.96624 0.869155
3.96753 0.865439
3.96882 0.859134
3.97011 0.852527
3.97141 0.843398
3.9727 0.834426
3.97399 0.838511
3.97528 0.839785
3.97658 0.840411
3.97787 0.840983
3.97916 0.839186
3.98045 0.833092
3.98175 0.824736
3.98304 0.825784
3.98433 0.819946
3.98562 0.823203
3.98691 0.832025
3.98821 0.833566
3.9895 0.825065
3.99079 0.826656
3.99208 0.829663
3.99338 0.823068
3.99467 0.826738
3.99596 0.835394
3.99725 0.837793
3.99855 0.836268
3.99984 0.847737
4.00113 0.853121
4.00242 0.856667
4.00371 0.863107
4.00501 0.86946
4.0063 0.873345
4.00759 0.878221
4.00888 0.892227
4.01018 0.894153
4.01147 0.910299
4.01276 0.922209
4.01405 0.925706
4.01535 0.923689
4.01664 0.921032
4.01793 0.92344
4.01922 0.931473
4.02051 0.949041
4.02181 0.953845
4.0231 0.951943
4.02439 0.953836
4.02568 0.960375
4.02698 0.958231
4.02827 0.95793
4.02956 0.959668
4.03085 0.957906
4.03214 0.958265
4.03344 0.964376
4.03473 0.970885
4.03602 0.9636
4.03731 0.957275
4.03861 0.956708
4.0399 0.95937
4.04119 0.963687
4.04248 0.966076
4.04378 0.964212
4.04507 0.959441
4.04636 0.945104
4.04765 0.945562
4.04894 0.942915
4.05024 0.939074
4.05153 0.935557
4.05282 0.934756
4.05411 0.940009
4.05541 0.941165
4.0567 0.938073
4.05799 0.935935
4.05928 0.935298
4.06058 0.939047
4.06187 0.943851
4.06316 0.940942
4.06445 0.937002
4.06574 0.945854
4.06704 0.946026
4.06833 0.94903
4.06962 0.951901
4.07091 0.949155
4.07221 0.942307
4.0735 0.943335
4.07479 0.940937
4.07608 0.932106
4.07738 0.934159
4.07867 0.942182
4.07996 0.94655
4.08125 0.944948
4.08254 0.947567
4.08384 0.940471
4.08513 0.945063
4.08642 0.952328
4.08771 0.959404
4.08901 0.967407
4.0903 0.97466
4.09159 0.971869
4.09288 0.969803
4.09418 0.970372
4.09547 0.974197
4.09676 0.978082
4.09805 0.985566
4.09934 0.994785
4.10064 0.992579
4.10193 0.996772
4.10322 0.991136
4.10451 0.993608
4.10581 0.997812
4.1071 1.00003
4.10839 1.00424
4.10968 1.01626
4.11098 1.0187
4.11227 1.02287
4.11356 1.0202
4.11485 1.02024
4.11614 1.02125
4.11744 1.02405
4.11873 1.0325
4.12002 1.03437
4.12131 1.03963
4.12261 1.03787
4.1239 1.03465
4.12519 1.03102
4.12648 1.03012
4.12778 1.03429
4.12907 1.03671
4.13036 1.03908
4.13165 1.03128
4.13294 1.0307
4.13424 1.0249
4.13553 1.01935
4.13682 1.02321
4.13811 1.02123
4.13941 1.02303
4.1407 1.02698
4.14199 1.02213
4.14328 1.01861
4.14458 1.01704
4.14587 1.01307
4.14716 1.00702
4.14845 1.00561
4.14974 1.00338
4.15104 1.00347
4.15233 1.00715
4.15362 1.00267
4.15491 0.990554
4.15621 0.986738
4.1575 0.980567
4.15879 0.969753
4.16008 0.973648
4.16138 0.974556
4.16267 0.97128
4.16396 0.965064
4.16525 0.955823
4.16654 0.94966
4.16784 0.943188
4.16913 0.945863
4.17042 0.944724
4.17171 0.941881
4.17301 0.943211
4.1743 0.94741
4.17559 0.941016
4.17688 0.943205
4.17818 0.946728
4.17947 0.946464
4.18076 0.947206
4.18205 0.946789
4.18334 0.94674
4.18464 0.958112
4.18593 0.958931
4.18722 0.966777
4.18851 0.972488
4.18981 0.970751
4.1911 0.970192
4.19239 0.972561
4.19368 0.969433
4.19498 0.980203
4.19627 0.980233
4.19756 0.987877
4.19885 0.985741
4.20014 0.981892
4.20144 0.982467
4.20273 0.982348
4.20402 0.977501
4.20531 0.987527
4.20661 0.987896
4.2079 0.994618
4.20919 0.999246
4.21048 0.999961
4.21178 1.00177
4.21307 1.00329
4.21436 1.00149
4.21565 1.0155
4.21694 1.01915
4.21824 1.02162
4.21953 1.02477
4.22082 1.02502
4.22211 1.02385
4.22341 1.03461
4.2247 1.03981
4.22599 1.04496
4.22728 1.04882
4.22858 1.04735
4.22987 1.04634
4.23116 1.05565
4.23245 1.05356
4.23374 1.0618
4.23504 1.06457
4.23633 1.0692
4.23762 1.07359
4.23891 1.07363
4.24021 1.07081
4.2415 1.07628
4.24279 1.06669
4.24408 1.06499
4.24538 1.05651
4.24667 1.0504
4.24796 1.04762
4.24925 1.04163
4.25054 1.03136
4.25184 1.03649
4.25313 1.02468
4.25442 1.01604
4.25571 1.00566
4.25701 0.992532
4.2583 0.983278
4.25959 0.984365
4.26088 0.976319
4.26218 0.975443
4.26347 0.966615
4.26476 0.958692
4.26605 0.954632
4.26734 0.949512
4.26864 0.940562
4.26993 0.945687
4.27122 0.953868
4.27251 0.958204
4.27381 0.963319
4.2751 0.965165
4.27639 0.966647
4.27768 0.974392
4.27898 0.987771
4.28027 0.999978
4.28156 1.01647
4.28285 1.02778
4.28414 1.037
4.28544 1.04698
4.28673 1.05607
4.28802 1.06116
4.28931 1.07693
4.29061 1.0805
4.2919 1.0859
4.29319 1.09
4.29448 1.09136
4.29578 1.09158
4.29707 1.09256
4.29836 1.09078
4.29965 1.09823
4.30094 1.09794
4.30224 1.09598
4.30353 1.09811
4.30482 1.10116
4.30611 1.09886
4.30741 1.09385
4.3087 1.09662
4.30999 1.09226
4.31128 1.09424
4.31258 1.09617
4.31387 1.09842
4.31516 1.10009
4.31645 1.09399
4.31774 1.09435
4.31904 1.10017
4.32033 1.10017
4.32162 1.09889
4.32291 1.10226
4.32421 1.10796
4.3255 1.10837
4.32679 1.10765
4.32808 1.11603
4.32938 1.11424
4.33067 1.11182
4.33196 1.11123
4.33325 1.11039
4.33454 1.10899
4.33584 1.11386
4.33713 1.12346
4.33842 1.12347
4.33971 1.12238
4.34101 1.12052
4.3423 1.12034
4.34359 1.12173
4.34488 1.12015
4.34618 1.11964
4.34747 1.11474
4.34876 1.11352
4.35005 1.11135
4.35134 1.10778
4.35264 1.10577
4.35393 1.10781
4.35522 1.1106
4.35651 1.10946
4.35781 1.11147
4.3591 1.11326
4.36039 1.11181
4.36168 1.11071
4.36297 1.11342
4.36427 1.11495
4.36556 1.11887
4.36685 1.12041
4.36814 1.12641
4.36944 1.13203
4.37073 1.13762
4.37202 1.1424
4.37331 1.14207
4.37461 1.14223
4.3759 1.15177
4.37719 1.15804
4.37848 1.16717
4.37977 1.17599
4.38107 1.18011
4.38236 1.18052
4.38365 1.18588
4.38494 1.19448
4.38624 1.20463
4.38753 1.21197
4.38882 1.21199
4.39011 1.21192
4.39141 1.21513
4.3927 1.20954
4.39399 1.2044
4.39528 1.20135
4.39657 1.19398
4.39787 1.18879
4.39916 1.18549
4.40045 1.18257
4.40174 1.1795
4.40304 1.17064
4.40433 1.16181
4.40562 1.14771
4.40691 1.13672
4.40821 1.12964
4.4095 1.12236
4.41079 1.11387
4.41208 1.11109
4.41337 1.09133
4.41467 1.07934
4.41596 1.0725
4.41725 1.06588
4.41854 1.0603
4.41984 1.05929
4.42113 1.06156
4.42242 1.04854
4.42371 1.04721
4.42501 1.05142
4.4263 1.053
4.42759 1.05937
4.42888 1.06708
4.43017 1.06615
4.43147 1.06755
4.43276 1.07475
4.43405 1.08143
4.43534 1.08724
4.43664 1.09111
4.43793 1.09301
4.43922 1.09199
4.44051 1.08623
4.44181 1.08518
4.4431 1.09688
4.44439 1.10268
4.44568 1.10566
4.44697 1.10708
4.44827 1.10653
4.44956 1.10364
4.45085 1.09974
4.45214 1.10338
4.45344 1.11418
4.45473 1.1254
4.45602 1.13294
4.45731 1.13471
4.45861 1.13127
4.4599 1.12627
4.46119 1.12425
4.46248 1.11896
4.46377 1.12218
4.46507 1.12819
4.46636 1.13161
4.46765 1.13089
4.46894 1.12633
4.47024 1.11243
4.47153 1.10163
4.47282 1.09425
4.47411 1.08255
4.47541 1.0798
4.4767 1.08881
4.47799 1.09706
4.47928 1.09103
4.48057 1.08416
4.48187 1.07668
4.48316 1.07346
4.48445 1.06986
4.48574 1.06444
4.48704 1.06272
4.48833 1.07155
4.48962 1.07887
4.49091 1.0816
4.49221 1.0783
4.4935 1.08102
4.49479 1.08019
4.49608 1.07224
4.49737 1.06268
4.49867 1.05244
4.49996 1.05272
4.50125 1.05446
4.50254 1.04518
4.50384 1.03967
4.50513 1.04092
4.50642 1.04331
4.50771 1.04218
4.50901 1.03363
4.5103 1.02393
4.51159 1.02161
4.51288 1.02533
4.51417 1.02828
4.51547 1.02838
4.51676 1.02799
4.51805 1.02615
4.51934 1.03384
4.52064 1.03655
4.52193 1.04231
4.52322 1.04878
4.52451 1.05744
4.52581 1.06916
4.5271 1.07789
4.52839 1.0703
4.52968 1.07216
4.53097 1.06789
4.53227 1.06867
4.53356 1.07851
4.53485 1.08915
4.53614 1.0904
4.53744 1.08867
4.53873 1.08553
4.54002 1.09312
4.54131 1.09663
4.54261 1.09923
4.5439 1.10152
4.54519 1.10257
4.54648 1.10462
4.54777 1.11192
4.54907 1.1125
4.55036 1.10881
4.55165 1.10965
4.55294 1.10936
4.55424 1.10781
4.55553 1.1089
4.55682 1.10263
4.55811 1.09895
4.55941 1.09741
4.5607 1.09159
4.56199 1.08347
4.56328 1.08101
4.56457 1.08364
4.56587 1.07921
4.56716 1.07782
4.56845 1.07364
4.56974 1.07571
4.57104 1.07284
4.57233 1.07127
4.57362 1.07444
4.57491 1.07975
4.57621 1.08915
4.5775 1.08813
4.57879 1.09526
4.58008 1.10173
4.58137 1.10623
4.58267 1.11031
4.58396 1.11618
4.58525 1.12412
4.58654 1.12821
4.58784 1.1365
4.58913 1.14235
4.59042 1.14695
4.59171 1.14856
4.59301 1.15035
4.5943 1.15593
4.59559 1.15935
4.59688 1.16219
4.59817 1.16156
4.59947 1.16219
4.60076 1.16031
4.60205 1.15755
4.60334 1.15519
4.60464 1.15123
4.60593 1.15046
4.60722 1.14918
4.60851 1.14639
4.60981 1.14135
4.6111 1.13393
4.61239 1.12534
4.61368 1.12032
4.61497 1.12579
4.61627 1.12276
4.61756 1.11928
4.61885 1.1169
4.62014 1.11347
4.62144 1.10889
4.62273 1.10512
4.62402 1.10524
4.62531 1.11228
4.62661 1.10676
4.6279 1.10693
4.62919 1.10132
4.63048 1.095
4.63177 1.09164
4.63307 1.08963
4.63436 1.08613
4.63565 1.08561
4.63694 1.07877
4.63824 1.07417
4.63953 1.07407
4.64082 1.07244
4.64211 1.0673
4.64341 1.06334
4.6447 1.06205
4.64599 1.06431
4.64728 1.06202
4.64857 1.06345
4.64987 1.06311
4.65116 1.06191
4.65245 1.06242
4.65374 1.06146
4.65504 1.05783
4.65633 1.05767
4.65762 1.05704
4.65891 1.05588
4.66021 1.05105
4.6615 1.04447
4.66279 1.0406
4.66408 1.03709
4.66537 1.0322
4.66667 1.02792
4.66796 1.01973
4.66925 1.01573
4.67054 1.01588
4.67184 1.01567
4.67313 1.01235
4.67442 1.00541
4.67571 1.00771
4.67701 1.00976
4.6783 1.01191
4.67959 1.01507
4.68088 1.01913
4.68217 1.02386
4.68347 1.02997
4.68476 1.03429
4.68605 1.04
4.68734 1.04663
4.68864 1.05512
4.68993 1.06108
4.69122 1.06354
4.69251 1.06587
4.6938 1.06647
4.6951 1.06522
4.69639 1.06974
4.69768 1.0697
4.69897 1.06433
4.70027 1.05895
4.70156 1.05663
4.70285 1.05322
4.70414 1.04487
4.70544 1.04353
4.70673 1.03927
4.70802 1.03396
4.70931 1.0304
4.7106 1.0265
4.7119 1.02175
4.71319 1.02588
4.71448 1.02275
4.71577 1.02209
4.71707 1.02201
4.71836 1.02101
4.71965 1.02202
4.72094 1.02539
4.72224 1.02686
4.72353 1.02571
4.72482 1.02715
4.72611 1.02783
4.7274 1.0331
4.7287 1.03548
4.72999 1.03527
4.73128 1.03558
4.73257 1.03453
4.73387 1.04297
4.73516 1.0425
4.73645 1.04308
4.73774 1.04476
4.73904 1.04695
4.74033 1.04895
4.74162 1.04994
4.74291 1.04938
4.7442 1.05274
4.7455 1.05519
4.74679 1.05877
4.74808 1.06055
4.74937 1.05901
4.75067 1.05866
4.75196 1.06412
4.75325 1.06094
4.75454 1.06223
4.75584 1.05873
4.75713 1.05538
4.75842 1.05088
4.75971 1.04645
4.761 1.04318
4.7623 1.0377
4.76359 1.02762
4.76488 1.02171
4.76617 1.0121
4.76747 1.00345
4.76876 0.997931
4.77005 0.992178
4.77134 0.982954
4.77264 0.975754
4.77393 0.969652
4.77522 0.961712
4.77651 0.958134
4.7778 0.955832
4.7791 0.951594
4.78039 0.946724
4.78168 0.945308
4.78297 0.945027
4.78427 0.942554
4.78556 0.94554
4.78685 0.947085
4.78814 0.945633
4.78944 0.94399
4.79073 0.943782
4.79202 0.943319
4.79331 0.949998
4.7946 0.952526
4.7959 0.953083
4.79719 0.954873
4.79848 0.956831
4.79977 0.958843
4.80107 0.961829
4.80236 0.964778
4.80365 0.968009
4.80494 0.966908
4.80624 0.970861
4.80753 0.977763
4.80882 0.983223
4.81011 0.987158
4.8114 0.99263
4.8127 0.997027
4.81399 1.00408
4.81528 1.00676
4.81657 1.01213
4.81787 1.02002
4.81916 1.0277
4.82045 1.0336
4.82174 1.03852
4.82304 1.04169
4.82433 1.05126
4.82562 1.05694
4.82691 1.05894
4.8282 1.06363
4.8295 1.06753
4.83079 1.0659
4.83208 1.06577
4.83337 1.06687
4.83467 1.06118
4.83596 1.06206
4.83725 1.05863
4.83854 1.05414
4.83984 1.05293
4.84113 1.05192
4.84242 1.04362
4.84371 1.04325
4.845 1.04299
4.8463 1.03589
4.84759 1.03047
4.84888 1.0291
4.85017 1.02735
4.85147 1.022
4.85276 1.02247
4.85405 1.02213
4.85534 1.01781
4.85664 1.01688
4.85793 1.01781
4.85922 1.01835
4.86051 1.01563
4.8618 1.00821
4.8631 1.00763
4.86439 1.00852
4.86568 1.00857
4.86697 1.00721
4.86827 1.00738
4.86956 1.00566
4.87085 1.00006
4.87214 0.998739
4.87344 0.997662
4.87473 1.00137
4.87602 1.00221
4.87731 1.00193
4.8786 1.00457
4.8799 1.00756
4.88119 1.00644
4.88248 1.00624
4.88377 1.00676
4.88507 1.00483
4.88636 1.00181
4.88765 1.00219
4.88894 1.00364
4.89024 1.00138
4.89153 0.99413
4.89282 0.987453
4.89411 0.981838
4.8954 0.979214
4.8967 0.975151
4.89799 0.969398
4.89928 0.963081
4.90057 0.957876
4.90187 0.954791
4.90316 0.951989
4.90445 0.956227
4.90574 0.956388
4.90704 0.958159
4.90833 0.961637
4.90962 0.96699
4.91091 0.974693
4.9122 0.983124
4.9135 0.985167
4.91479 0.98892
4.91608 1.00011
4.91737 1.00939
4.91867 1.01541
4.91996 1.02262
4.92125 1.03146
4.92254 1.03315
4.92384 1.03621
4.92513 1.03919
4.92642 1.04815
4.92771 1.05273
4.929 1.05504
4.9303 1.05849
4.93159 1.06191
4.93288 1.06253
4.93417 1.0656
4.93547 1.06951
4.93676 1.07578
4.93805 1.08023
4.93934 1.08289
4.94064 1.08505
4.94193 1.08682
4.94322 1.08778
4.94451 1.09086
4.9458 1.09379
4.9471 1.09618
4.94839 1.09484
4.94968 1.09327
4.95097 1.09405
4.95227 1.09494
4.95356 1.09574
4.95485 1.09365
4.95614 1.09106
4.95744 1.09114
4.95873 1.09195
4.96002 1.09165
4.96131 1.09088
4.9626 1.09083
4.9639 1.08598
4.96519 1.09027
4.96648 1.09034
4.96777 1.09085
4.96907 1.08911
4.97036 1.08562
4.97165 1.08214
4.97294 1.07814
4.97424 1.07741
4.97553 1.07541
4.97682 1.07047
4.97811 1.0646
4.9794 1.05801
4.9807 1.05524
4.98199 1.0562
4.98328 1.05025
4.98457 1.05031
4.98587 1.04696
4.98716 1.04052
4.98845 1.03577
4.98974 1.03479
4.99104 1.03538
4.99233 1.035
4.99362 1.03546
4.99491 1.03593
4.9962 1.03441
4.9975 1.0374
4.99879 1.03946
5.00008 1.04008
5.00137 1.04183
5.00267 1.04651
5.00396 1.05219
5.00525 1.05147
5.00654 1.05501
5.00784 1.05549
5.00913 1.05617
5.01042 1.05827
5.01171 1.06167
5.013 1.06544
5.0143 1.06715
5.01559 1.06807
5.01688 1.0669
5.01817 1.06516
5.01947 1.06694
5.02076 1.06868
5.02205 1.06942
5.02334 1.0722
5.02463 1.07253
5.02593 1.07478
5.02722 1.07693
5.02851 1.08054
5.0298 1.08581
5.0311 1.08896
5.03239 1.09041
5.03368 1.09538
5.03497 1.10177
5.03627 1.10429
5.03756 1.10366
5.03885 1.10596
5.04014 1.10826
5.04143 1.10994
5.04273 1.11188
5.04402 1.11372
5.04531 1.11332
5.0466 1.11443
5.0479 1.10639
5.04919 1.10622
5.05048 1.10879
5.05177 1.11017
5.05307 1.10948
5.05436 1.10648
5.05565 1.10418
5.05694 1.10661
5.05823 1.11133
5.05953 1.11753
5.06082 1.12435
5.06211 1.12974
5.0634 1.13364
5.0647 1.13922
5.06599 1.14797
5.06728 1.15792
5.06857 1.1688
5.06987 1.17734
5.07116 1.18743
5.07245 1.19398
5.07374 1.19714
5.07503 1.20887
5.07633 1.21865
5.07762 1.22437
5.07891 1.22788
5.0802 1.23261
5.0815 1.23421
5.08279 1.23352
5.08408 1.23471
5.08537 1.23851
5.08667 1.23955
5.08796 1.23967
5.08925 1.23684
5.09054 1.24045
5.09183 1.24258
5.09313 1.23771
5.09442 1.22956
5.09571 1.22685
5.097 1.23012
5.0983 1.23914
5.09959 1.23666
5.10088 1.23352
5.10217 1.23536
5.10347 1.24015
5.10476 1.24313
5.10605 1.24365
5.10734 1.24828
5.10863 1.24945
5.10993 1.25586
5.11122 1.25853
5.11251 1.26007
5.1138 1.26114
5.1151 1.26236
5.11639 1.26721
5.11768 1.26861
5.11897 1.27121
5.12027 1.27263
5.12156 1.27467
5.12285 1.27492
5.12414 1.27191
5.12543 1.26819
5.12673 1.26861
5.12802 1.27117
5.12931 1.26768
5.1306 1.26571
5.1319 1.26539
5.13319 1.26193
5.13448 1.25748
5.13577 1.25522
5.13707 1.25156
5.13836 1.24467
5.13965 1.24241
5.14094 1.23745
5.14223 1.23544
5.14353 1.23311
5.14482 1.22801
5.14611 1.22078
5.1474 1.21347
5.1487 1.20833
5.14999 1.20518
5.15128 1.20115
5.15257 1.19557
5.15387 1.18854
5.15516 1.18219
5.15645 1.17788
5.15774 1.17358
5.15903 1.16572
5.16033 1.15874
5.16162 1.15513
5.16291 1.14898
5.1642 1.14195
5.1655 1.13682
5.16679 1.13395
5.16808 1.13061
5.16937 1.12282
5.17067 1.11528
5.17196 1.11203
5.17325 1.10897
5.17454 1.10348
5.17583 1.09845
5.17713 1.09462
5.17842 1.0884
5.17971 1.08561
5.181 1.08467
5.1823 1.08185
5.18359 1.07713
5.18488 1.07494
5.18617 1.07391
5.18747 1.07184
5.18876 1.07021
5.19005 1.06959
5.19134 1.07099
5.19263 1.06852
5.19393 1.06799
5.19522 1.06992
5.19651 1.07244
5.1978 1.07459
5.1991 1.07638
5.20039 1.07498
5.20168 1.0758
5.20297 1.07919
5.20427 1.08008
5.20556 1.07948
5.20685 1.07766
5.20814 1.0762
5.20943 1.07719
5.21073 1.07808
5.21202 1.07745
5.21331 1.0793
5.2146 1.07629
5.2159 1.06812
5.21719 1.06129
5.21848 1.05901
5.21977 1.05892
5.22107 1.05956
5.22236 1.05465
5.22365 1.04668
5.22494 1.0423
5.22623 1.04052
5.22753 1.04123
5.22882 1.04398
5.23011 1.04684
5.2314 1.04745
5.2327 1.04974
5.23399 1.05335
5.23528 1.06009
5.23657 1.0641
5.23787 1.06512
5.23916 1.06592
5.24045 1.06698
5.24174 1.06455
5.24303 1.06275
5.24433 1.05809
5.24562 1.0537
5.24691 1.04913
5.2482 1.04162
5.2495 1.03403
5.25079 1.02781
5.25208 1.01603
5.25337 1.00448
5.25467 0.996184
5.25596 0.987708
5.25725 0.979415
5.25854 0.971448
5.25983 0.963082
5.26113 0.955311
5.26242 0.951493
5.26371 0.95045
5.265 0.94653
5.2663 0.945663
5.26759 0.946077
5.26888 0.947484
5.27017 0.950296
5.27147 0.95427
5.27276 0.958287
5.27405 0.962321
5.27534 0.969123
5.27663 0.974294
5.27793 0.978011
5.27922 0.980691
5.28051 0.986187
5.2818 0.993401
5.2831 0.99567
5.28439 0.993906
5.28568 0.9971
5.28697 1.00113
5.28827 1.00313
5.28956 1.00415
5.29085 1.00596
5.29214 1.00866
5.29343 1.01147
5.29473 1.01559
5.29602 1.01884
5.29731 1.02097
5.2986 1.02308
5.2999 1.02352
5.30119 1.02338
5.30248 1.02475
5.30377 1.02735
5.30507 1.0275
5.30636 1.02717
5.30765 1.02747
5.30894 1.02549
5.31023 1.02277
5.31153 1.02033
5.31282 1.01808
5.31411 1.0156
5.3154 1.01341
5.3167 1.01396
5.31799 1.01266
5.31928 1.01205
5.32057 1.01036
5.32187 1.00818
5.32316 1.00881
5.32445 1.01267
5.32574 1.01534
5.32703 1.01656
5.32833 1.01775
5.32962 1.02268
5.33091 1.02673
5.3322 1.03051
5.3335 1.03408
5.33479 1.03722
5.33608 1.04012
5.33737 1.04215
5.33867 1.0412
5.33996 1.04287
5.34125 1.04133
5.34254 1.03977
5.34383 1.037
5.34513 1.0338
5.34642 1.03219
5.34771 1.02793
5.349 1.02149
5.3503 1.01548
5.35159 1.00879
5.35288 1.0022
5.35417 0.996635
5.35546 0.991028
5.35676 0.983495
5.35805 0.974505
5.35934 0.96921
5.36063 0.962356
5.36193 0.958918
5.36322 0.953224
5.36451 0.948678
5.3658 0.945504
5.3671 0.941348
5.36839 0.937053
5.36968 0.938281
5.37097 0.93777
5.37226 0.936755
5.37356 0.935631
5.37485 0.933619
5.37614 0.933082
5.37743 0.933626
5.37873 0.932049
5.38002 0.931384
5.38131 0.928552
5.3826 0.928242
5.3839 0.927269
5.38519 0.924681
5.38648 0.925382
5.38777 0.928124
5.38906 0.927336
5.39036 0.925555
5.39165 0.928194
5.39294 0.925537
5.39423 0.925857
5.39553 0.928433
5.39682 0.93226
5.39811 0.935685
5.3994 0.937354
5.4007 0.937725
5.40199 0.939251
5.40328 0.938706
5.40457 0.940486
5.40586 0.94238
5.40716 0.943978
5.40845 0.94419
5.40974 0.942237
5.41103 0.939054
5.41233 0.936783
5.41362 0.932496
5.41491 0.931476
5.4162 0.929857
5.4175 0.927758
5.41879 0.92554
5.42008 0.922297
5.42137 0.918402
5.42266 0.918292
5.42396 0.917177
5.42525 0.911982
5.42654 0.911562
5.42783 0.911021
5.42913 0.910095
5.43042 0.909092
5.43171 0.907427
5.433 0.905293
5.4343 0.905629
5.43559 0.90615
5.43688 0.90446
5.43817 0.903557
5.43946 0.902458
5.44076 0.902095
5.44205 0.901821
5.44334 0.899396
5.44463 0.899634
5.44593 0.901005
5.44722 0.900641
5.44851 0.903503
5.4498 0.905097
5.4511 0.906092
5.45239 0.908302
5.45368 0.910763
5.45497 0.911191
5.45626 0.9151
5.45756 0.91916
5.45885 0.922291
5.46014 0.92578
5.46143 0.926977
5.46273 0.92688
5.46402 0.928196
5.46531 0.93022
5.4666 0.930616
5.4679 0.932624
5.46919 0.931152
5.47048 0.928341
5.47177 0.929462
5.47306 0.930773
5.47436 0.928983
5.47565 0.926571
5.47694 0.923899
5.47823 0.921945
5.47953 0.921146
5.48082 0.920748
5.48211 0.917436
5.4834 0.91329
5.4847 0.910696
5.48599 0.90866
5.48728 0.90372
5.48857 0.896067
5.48986 0.893223
5.49116 0.888316
5.49245 0.881322
5.49374 0.876211
5.49503 0.873144
5.49633 0.869421
5.49762 0.864224
5.49891 0.861477
5.5002 0.858842
5.5015 0.858393
5.50279 0.856603
5.50408 0.854945
5.50537 0.854806
5.50666 0.856783
5.50796 0.860201
5.50925 0.86315
5.51054 0.867173
5.51183 0.871958
5.51313 0.875355
5.51442 0.879203
5.51571 0.884425
5.517 0.89023
5.5183 0.895309
5.51959 0.899138
5.52088 0.90167
5.52217 0.906164
5.52346 0.909973
5.52476 0.912357
5.52605 0.916987
5.52734 0.920832
5.52863 0.922425
5.52993 0.924963
5.53122 0.92869
5.53251 0.927142
5.5338 0.927334
5.5351 0.930185
5.53639 0.932497
5.53768 0.933971
5.53897 0.935328
5.54026 0.937141
5.54156 0.93909
5.54285 0.938344
5.54414 0.941929
5.54543 0.942418
5.54673 0.941276
5.54802 0.939194
5.54931 0.937923
5.5506 0.937471
5.5519 0.93663
5.55319 0.93697
5.55448 0.93479
5.55577 0.932023
5.55706 0.930959
5.55836 0.92701
5.55965 0.923409
5.56094 0.9211
5.56223 0.917708
5.56353 0.91301
5.56482 0.911246
5.56611 0.908757
5.5674 0.908935
5.5687 0.908855
5.56999 0.906673
5.57128 0.90483
5.57257 0.903854
5.57386 0.902384
5.57516 0.904411
5.57645 0.906814
5.57774 0.907588
5.57903 0.912441
5.58033 0.914694
5.58162 0.915874
5.58291 0.919755
5.5842 0.926373
5.5855 0.931482
5.58679 0.93363
5.58808 0.939069
5.58937 0.939766
5.59066 0.940207
5.59196 0.943736
5.59325 0.947516
5.59454 0.948792
5.59583 0.94872
5.59713 0.949143
5.59842 0.946346
5.59971 0.944159
5.601 0.944034
5.6023 0.943634
5.60359 0.941644
5.60488 0.939804
5.60617 0.939415
5.60746 0.938814
5.60876 0.938122
5.61005 0.936143
5.61134 0.934626
5.61263 0.934929
5.61393 0.933105
5.61522 0.931473
5.61651 0.931959
5.6178 0.932623
5.6191 0.931376
5.62039 0.928473
5.62168 0.92501
5.62297 0.924004
5.62426 0.919652
5.62556 0.915277
5.62685 0.910999
5.62814 0.905236
5.62943 0.899813
5.63073 0.897811
5.63202 0.890243
5.63331 0.884068
5.6346 0.881082
5.6359 0.876984
5.63719 0.872349
5.63848 0.869329
5.63977 0.867795
5.64106 0.86565
5.64236 0.865759
5.64365 0.863903
5.64494 0.862223
5.64623 0.864243
5.64753 0.866405
5.64882 0.867516
5.65011 0.86951
5.6514 0.872589
5.6527 0.871452
5.65399 0.8748
5.65528 0.877645
5.65657 0.881802
5.65786 0.887786
5.65916 0.891194
5.66045 0.892745
5.66174 0.895802
5.66303 0.900063
5.66433 0.905021
5.66562 0.91182
5.66691 0.916275
5.6682 0.918551
5.6695 0.92145
5.67079 0.925562
5.67208 0.929508
5.67337 0.932604
5.67466 0.936409
5.67596 0.939034
5.67725 0.942866
5.67854 0.943877
5.67983 0.945848
5.68113 0.948301
5.68242 0.950437
5.68371 0.952793
5.685 0.956343
5.6863 0.960403
5.68759 0.965106
5.68888 0.965035
5.69017 0.966007
5.69146 0.967798
5.69276 0.969723
5.69405 0.971173
5.69534 0.971425
5.69663 0.97021
5.69793 0.969728
5.69922 0.968425
5.70051 0.969704
5.7018 0.969625
5.70309 0.968067
5.70439 0.966752
5.70568 0.965715
5.70697 0.963935
5.70826 0.962646
5.70956 0.962885
5.71085 0.961061
5.71214 0.961189
5.71343 0.961945
5.71473 0.960925
5.71602 0.958427
5.71731 0.956108
5.7186 0.954753
5.71989 0.953721
5.72119 0.949708
5.72248 0.946698
5.72377 0.942314
5.72506 0.937526
5.72636 0.932127
5.72765 0.925229
5.72894 0.917362
5.73023 0.909674
5.73153 0.898037
5.73282 0.887928
5.73411 0.883784
5.7354 0.875716
5.73669 0.868579
5.73799 0.861593
5.73928 0.85397
5.74057 0.847748
5.74186 0.843974
5.74316 0.838869
5.74445 0.836589
5.74574 0.834512
5.74703 0.834774
5.74833 0.833398
5.74962 0.831804
5.75091 0.831961
5.7522 0.832375
5.75349 0.831076
5.75479 0.829271
5.75608 0.829741
5.75737 0.829577
5.75866 0.827828
5.75996 0.828746
5.76125 0.830263
5.76254 0.829846
5.76383 0.829315
5.76513 0.827901
5.76642 0.82742
5.76771 0.8265
5.769 0.829054
5.77029 0.832661
5.77159 0.832757
5.77288 0.830775
5.77417 0.831165
5.77546 0.834479
5.77676 0.837151
5.77805 0.838231
5.77934 0.840789
5.78063 0.84326
5.78193 0.846942
5.78322 0.849908
5.78451 0.851439
5.7858 0.854165
5.78709 0.860935
5.78839 0.867885
5.78968 0.872492
5.79097 0.878657
5.79226 0.881846
5.79356 0.88485
5.79485 0.889811
5.79614 0.896736
5.79743 0.903882
5.79873 0.908976
5.80002 0.912546
5.80131 0.917329
5.8026 0.919504
5.80389 0.923615
5.80519 0.928868
5.80648 0.933488
5.80777 0.93641
5.80906 0.937865
5.81036 0.939124
5.81165 0.938787
5.81294 0.940472
5.81423 0.939395
5.81553 0.938228
5.81682 0.934961
5.81811 0.930962
5.8194 0.927902
5.82069 0.924292
5.82199 0.919083
5.82328 0.915277
5.82457 0.912118
5.82586 0.907783
5.82716 0.90411
5.82845 0.901182
5.82974 0.89847
5.83103 0.895
5.83233 0.890722
5.83362 0.88943
5.83491 0.887809
5.8362 0.88681
5.83749 0.883587
5.83879 0.87936
5.84008 0.876419
5.84137 0.874497
5.84266 0.87237
5.84396 0.870316
5.84525 0.86812
5.84654 0.86585
5.84783 0.862175
5.84913 0.858375
5.85042 0.85691
5.85171 0.855324
5.853 0.853495
5.85429 0.852143
5.85559 0.849643
5.85688 0.850775
5.85817 0.855328
5.85946 0.856966
5.86076 0.861112
5.86205 0.86723
5.86334 0.873763
5.86463 0.879813
5.86593 0.885458
5.86722 0.891427
5.86851 0.898766
5.8698 0.907342
5.87109 0.916776
5.87239 0.923332
5.87368 0.92875
5.87497 0.935058
5.87626 0.941405
5.87756 0.946082
5.87885 0.949947
5.88014 0.953102
5.88143 0.957283
5.88273 0.960251
5.88402 0.961298
5.88531 0.962993
5.8866 0.965335
5.88789 0.96678
5.88919 0.966368
5.89048 0.964734
5.89177 0.964018
5.89306 0.964964
5.89436 0.964087
5.89565 0.963362
5.89694 0.961381
5.89823 0.959438
5.89953 0.958866
5.90082 0.959323
5.90211 0.960044
5.9034 0.95962
5.90469 0.959584
5.90599 0.958859
5.90728 0.956884
5.90857 0.955659
5.90986 0.95467
5.91116 0.953884
5.91245 0.953769
5.91374 0.952415
5.91503 0.950113
5.91633 0.946962
5.91762 0.944872
5.91891 0.941815
5.9202 0.93783
5.92149 0.933921
5.92279 0.930285
5.92408 0.926531
5.92537 0.923146
5.92666 0.920145
5.92796 0.918361
5.92925 0.912697
5.93054 0.911962
5.93183 0.912518
5.93313 0.913657
5.93442 0.915417
5.93571 0.917555
5.937 0.922017
5.93829 0.92611
5.93959 0.928025
5.94088 0.930063
5.94217 0.93424
5.94346 0.93905
5.94476 0.942539
5.94605 0.944467
5.94734 0.945526
5.94863 0.945421
5.94993 0.944813
5.95122 0.947585
5.95251 0.946479
5.9538 0.942301
5.95509 0.939008
5.95639 0.937334
5.95768 0.934869
5.95897 0.930821
5.96026 0.928591
5.96156 0.926367
5.96285 0.925741
5.96414 0.921862
5.96543 0.921679
5.96673 0.922691
5.96802 0.923092
5.96931 0.923367
5.9706 0.925283
5.97189 0.929584
5.97319 0.932096
5.97448 0.935664
5.97577 0.938555
5.97706 0.943622
5.97836 0.948972
5.97965 0.953673
5.98094 0.956838
5.98223 0.958851
5.98353 0.962207
5.98482 0.9659
5.98611 0.967211
5.9874 0.966774
5.98869 0.96601
5.98999 0.96688
5.99128 0.967931
5.99257 0.968172
5.99386 0.966974
5.99516 0.963694
5.99645 0.96261
5.99774 0.957671
5.99903 0.953998
6.00033 0.948675
6.00162 0.945399
6.00291 0.942256
6.0042 0.936885
6.00549 0.930612
6.00679 0.926246
6.00808 0.921083
6.00937 0.914575
6.01066 0.9095
6.01196 0.905452
6.01325 0.902196
6.01454 0.898867
6.01583 0.896396
6.01713 0.896156
6.01842 0.896731
6.01971 0.89387
6.021 0.896358
6.02229 0.90153
6.02359 0.905364
6.02488 0.909568
6.02617 0.915169
6.02746 0.921257
6.02876 0.926206
6.03005 0.930494
6.03134 0.937762
6.03263 0.945821
6.03392 0.947559
6.03522 0.95342
6.03651 0.957184
6.0378 0.959451
6.03909 0.960815
6.04039 0.960906
6.04168 0.960247
6.04297 0.960245
6.04426 0.956708
6.04556 0.954739
6.04685 0.953315
6.04814 0.952025
6.04943 0.949833
6.05072 0.947752
6.05202 0.946514
6.05331 0.944715
6.0546 0.940644
6.05589 0.937917
6.05719 0.935176
6.05848 0.93372
6.05977 0.930916
6.06106 0.927894
6.06236 0.924155
6.06365 0.919222
6.06494 0.913821
6.06623 0.909299
6.06752 0.90633
6.06882 0.904355
6.07011 0.900185
6.0714 0.897501
6.07269 0.894201
6.07399 0.89071
6.07528 0.889105
6.07657 0.889795
6.07786 0.891493
6.07916 0.894967
6.08045 0.894654
6.08174 0.896146
6.08303 0.903149
6.08432 0.909799
6.08562 0.914336
6.08691 0.918429
6.0882 0.923594
6.08949 0.930158
6.09079 0.938603
6.09208 0.945612
6.09337 0.948059
6.09466 0.948939
6.09596 0.95367
6.09725 0.956215
6.09854 0.956893
6.09983 0.956414
6.10112 0.953714
6.10242 0.950542
6.10371 0.948395
6.105 0.940797
6.10629 0.935663
6.10759 0.928713
6.10888 0.922034
6.11017 0.914655
6.11146 0.906247
6.11276 0.898256
6.11405 0.891805
6.11534 0.886317
6.11663 0.882146
6.11792 0.878635
6.11922 0.876965
6.12051 0.876838
6.1218 0.877286
6.12309 0.878186
6.12439 0.880386
6.12568 0.884592
6.12697 0.889698
6.12826 0.89122
6.12956 0.891704
6.13085 0.894863
6.13214 0.899406
6.13343 0.900791
6.13472 0.899936
6.13602 0.899027
6.13731 0.897717
6.1386 0.894836
6.13989 0.892246
6.14119 0.889834
6.14248 0.887302
6.14377 0.883074
6.14506 0.879437
6.14636 0.876964
6.14765 0.875615
6.14894 0.875034
6.15023 0.873429
6.15152 0.868228
6.15282 0.870707
6.15411 0.871567
6.1554 0.874957
6.15669 0.877284
6.15799 0.879423
6.15928 0.88205
6.16057 0.884632
6.16186 0.886583
6.16316 0.888192
6.16445 0.890889
6.16574 0.894241
6.16703 0.895817
6.16832 0.898941
6.16962 0.902335
6.17091 0.903837
6.1722 0.905088
6.17349 0.908415
6.17479 0.911774
6.17608 0.912935
6.17737 0.913624
6.17866 0.918279
6.17996 0.922828
6.18125 0.925624
6.18254 0.928344
6.18383 0.931654
6.18512 0.934822
6.18642 0.937367
6.18771 0.939334
6.189 0.938758
6.19029 0.940538
6.19159 0.941613
6.19288 0.942084
6.19417 0.941178
6.19546 0.938705
6.19676 0.935932
6.19805 0.934707
6.19934 0.934646
6.20063 0.930149
6.20192 0.924026
6.20322 0.921356
6.20451 0.918517
6.2058 0.915147
6.20709 0.910849
6.20839 0.906369
6.20968 0.902588
6.21097 0.898621
6.21226 0.892723
6.21356 0.891439
6.21485 0.890216
6.21614 0.885281
6.21743 0.8784
6.21872 0.872136
6.22002 0.86794
6.22131 0.865336
6.2226 0.86254
6.22389 0.859305
6.22519 0.861334
6.22648 0.863779
6.22777 0.865805
6.22906 0.867764
6.23036 0.872172
6.23165 0.877066
6.23294 0.881234
6.23423 0.884927
6.23552 0.888048
6.23682 0.890581
6.23811 0.89452
6.2394 0.896342
6.24069 0.896935
6.24199 0.898968
6.24328 0.900143
6.24457 0.902628
6.24586 0.906564
6.24716 0.908556
6.24845 0.907913
6.24974 0.908309
6.25103 0.910203
6.25232 0.915401
6.25362 0.91765
6.25491 0.920902
6.2562 0.923886
6.25749 0.926761
6.25879 0.931165
6.26008 0.937347
6.26137 0.944426
6.26266 0.950641
6.26396 0.952375
6.26525 0.956338
6.26654 0.958362
6.26783 0.959498
6.26912 0.962285
6.27042 0.962697
6.27171 0.958496
6.273 0.956313
6.27429 0.95311
6.27559 0.950448
6.27688 0.943651
6.27817 0.938543
6.27946 0.934905
6.28076 0.93144
6.28205 0.92755
6.28334 0.924307
6.28463 0.922184
6.28592 0.91919
6.28722 0.919101
6.28851 0.919095
6.2898 0.920359
6.29109 0.921788
6.29239 0.924011
6.29368 0.9261
6.29497 0.927883
6.29626 0.930309
6.29756 0.93416
6.29885 0.939088
6.30014 0.941318
6.30143 0.945566
6.30272 0.948052
6.30402 0.950056
6.30531 0.953775
6.3066 0.957004
6.30789 0.959152
6.30919 0.962334
6.31048 0.967241
6.31177 0.974145
6.31306 0.980603
6.31436 0.984333
6.31565 0.987111
6.31694 0.990192
6.31823 0.994504
6.31952 0.999741
6.32082 1.00408
6.32211 1.00611
6.3234 1.0073
6.32469 1.00941
6.32599 1.01118
6.32728 1.0116
6.32857 1.01258
6.32986 1.0119
6.33116 1.01156
6.33245 1.01163
6.33374 1.00986
6.33503 1.00575
6.33632 1.00206
6.33762 0.998812
6.33891 0.995023
6.3402 0.992938
6.34149 0.988258
6.34279 0.984701
6.34408 0.982187
6.34537 0.979618
6.34666 0.977768
6.34796 0.976456
6.34925 0.970846
6.35054 0.970382
6.35183 0.9691
6.35312 0.966745
6.35442 0.966107
6.35571 0.964334
6.357 0.962315
6.35829 0.961352
6.35959 0.959706
6.36088 0.956221
6.36217 0.956057
6.36346 0.955684
6.36475 0.953221
6.36605 0.953347
6.36734 0.952931
6.36863 0.951222
6.36992 0.950722
6.37122 0.950912
6.37251 0.948478
6.3738 0.945342
6.37509 0.945497
6.37639 0.941728
6.37768 0.938495
6.37897 0.938211
6.38026 0.938484
6.38155 0.940507
6.38285 0.941703
6.38414 0.940661
6.38543 0.941408
6.38672 0.945389
6.38802 0.949676
6.38931 0.950318
6.3906 0.955224
6.39189 0.962249
6.39319 0.96603
6.39448 0.96892
6.39577 0.971208
6.39706 0.971815
6.39835 0.973237
6.39965 0.976295
6.40094 0.98057
6.40223 0.978613
6.40352 0.979464
6.40482 0.98119
6.40611 0.981805
6.4074 0.981224
6.40869 0.979236
6.40999 0.976356
6.41128 0.974992
6.41257 0.975488
6.41386 0.973625
6.41515 0.972134
6.41645 0.973345
6.41774 0.972226
6.41903 0.972135
6.42032 0.973271
6.42162 0.975027
6.42291 0.976846
6.4242 0.976581
6.42549 0.975547
6.42679 0.979224
6.42808 0.983755
6.42937 0.984316
6.43066 0.987057
6.43195 0.988226
6.43325 0.989484
6.43454 0.991994
6.43583 0.993269
6.43712 0.993467
6.43842 0.99591
6.43971 0.997521
6.441 0.996857
6.44229 0.99687
6.44359 0.996915
6.44488 0.994931
6.44617 0.993143
6.44746 0.992471
6.44875 0.99024
6.45005 0.985955
6.45134 0.984688
6.45263 0.981873
6.45392 0.981308
6.45522 0.978586
6.45651 0.976478
6.4578 0.975503
6.45909 0.973865
6.46039 0.970668
6.46168 0.968579
6.46297 0.970185
6.46426 0.966614
6.46555 0.967856
6.46685 0.966811
6.46814 0.966442
6.46943 0.968364
6.47072 0.971047
6.47202 0.973302
6.47331 0.977744
6.4746 0.985195
6.47589 0.989724
6.47719 0.994618
6.47848 0.998572
6.47977 1.00613
6.48106 1.01379
6.48235 1.02001
6.48365 1.02418
6.48494 1.02815
6.48623 1.03143
6.48752 1.03218
6.48882 1.03218
6.49011 1.03142
6.4914 1.02928
6.49269 1.02623
6.49399 1.02465
6.49528 1.02132
6.49657 1.01613
6.49786 1.01055
6.49915 1.00582
6.50045 1.00092
6.50174 0.99356
6.50303 0.987495
6.50432 0.983462
6.50562 0.980247
6.50691 0.976122
6.5082 0.973241
6.50949 0.973083
6.51079 0.97283
6.51208 0.971513
6.51337 0.970159
6.51466 0.967361
6.51595 0.964215
6.51725 0.96555
6.51854 0.96429
6.51983 0.960672
6.52112 0.960669
6.52242 0.960253
6.52371 0.959406
6.525 0.957636
6.52629 0.954523
6.52759 0.95335
6.52888 0.952258
6.53017 0.949099
6.53146 0.947535
6.53275 0.946031
6.53405 0.946156
6.53534 0.944472
6.53663 0.94275
6.53792 0.943331
6.53922 0.944467
6.54051 0.943395
6.5418 0.942906
6.54309 0.943959
6.54439 0.942306
6.54568 0.941721
6.54697 0.939999
6.54826 0.937584
6.54955 0.936282
6.55085 0.934037
6.55214 0.929303
6.55343 0.925315
6.55472 0.923692
6.55602 0.92018
6.55731 0.9185
6.5586 0.916102
6.55989 0.912837
6.56119 0.913261
6.56248 0.914857
6.56377 0.916012
6.56506 0.918046
6.56635 0.921742
6.56765 0.926021
6.56894 0.931114
6.57023 0.939501
6.57152 0.946207
6.57282 0.95323
6.57411 0.961591
6.5754 0.973138
6.57669 0.985213
6.57799 0.995475
6.57928 1.00486
6.58057 1.01451
6.58186 1.02654
6.58315 1.03491
6.58445 1.04341
6.58574 1.05162
6.58703 1.05624
6.58832 1.06096
6.58962 1.06586
6.59091 1.06902
6.5922 1.07068
6.59349 1.07276
6.59479 1.07536
6.59608 1.07723
6.59737 1.07482
6.59866 1.07508
6.59995 1.07264
6.60125 1.06901
6.60254 1.06785
6.60383 1.0682
6.60512 1.06752
6.60642 1.06582
6.60771 1.06218
6.609 1.05985
6.61029 1.05522
6.61159 1.05211
6.61288 1.04791
6.61417 1.04447
6.61546 1.04378
6.61675 1.04358
6.61805 1.04103
6.61934 1.0377
6.62063 1.03757
6.62192 1.03906
6.62322 1.03897
6.62451 1.04148
6.6258 1.04102
6.62709 1.043
6.62839 1.04662
6.62968 1.04814
6.63097 1.0486
6.63226 1.05197
6.63355 1.0575
6.63485 1.06123
6.63614 1.06334
6.63743 1.06744
6.63872 1.06988
6.64002 1.07387
6.64131 1.07805
6.6426 1.0808
6.64389 1.08255
6.64519 1.08401
6.64648 1.08446
6.64777 1.0837
6.64906 1.08291
6.65035 1.08031
6.65165 1.07886
6.65294 1.07658
6.65423 1.07426
6.65552 1.07223
6.65682 1.07136
6.65811 1.07128
6.6594 1.071
6.66069 1.07139
6.66199 1.07189
6.66328 1.07123
6.66457 1.07154
6.66586 1.0747
6.66715 1.07538
6.66845 1.07688
6.66974 1.08089
6.67103 1.08506
6.67232 1.08885
6.67362 1.09457
6.67491 1.09796
6.6762 1.09867
6.67749 1.10131
6.67879 1.10569
6.68008 1.10889
6.68137 1.11071
6.68266 1.1148
6.68395 1.1188
6.68525 1.12124
6.68654 1.1245
6.68783 1.12713
6.68912 1.13007
6.69042 1.13122
6.69171 1.13036
6.693 1.13213
6.69429 1.1329
6.69558 1.13209
6.69688 1.13112
6.69817 1.13095
6.69946 1.12979
6.70075 1.12585
6.70205 1.12341
6.70334 1.122
6.70463 1.12104
6.70592 1.11808
6.70722 1.11162
6.70851 1.10648
6.7098 1.10505
6.71109 1.10446
6.71238 1.10184
6.71368 1.09805
6.71497 1.0953
6.71626 1.09492
6.71755 1.09537
6.71885 1.09361
6.72014 1.0934
6.72143 1.09378
6.72272 1.09435
6.72402 1.09398
6.72531 1.09394
6.7266 1.09407
6.72789 1.09217
6.72918 1.09247
6.73048 1.09592
6.73177 1.09355
6.73306 1.09239
6.73435 1.09242
6.73565 1.09211
6.73694 1.09171
6.73823 1.09191
6.73952 1.09252
6.74082 1.0919
6.74211 1.08896
6.7434 1.08757
6.74469 1.08798
6.74598 1.08809
6.74728 1.08775
6.74857 1.08916
6.74986 1.09136
6.75115 1.09338
6.75245 1.09524
6.75374 1.09728
6.75503 1.09978
6.75632 1.10325
6.75762 1.1076
6.75891 1.11099
6.7602 1.1133
6.76149 1.11659
6.76278 1.12143
6.76408 1.1268
6.76537 1.13224
6.76666 1.13656
6.76795 1.13969
6.76925 1.14309
6.77054 1.14563
6.77183 1.15053
6.77312 1.15237
6.77442 1.15184
6.77571 1.15159
6.777 1.15165
6.77829 1.14966
6.77958 1.14686
6.78088 1.14537
6.78217 1.14387
6.78346 1.13952
6.78475 1.1343
6.78605 1.12884
6.78734 1.12423
6.78863 1.11999
6.78992 1.11674
6.79122 1.11367
6.79251 1.11142
6.7938 1.11074
6.79509 1.11017
6.79638 1.10857
6.79768 1.10782
6.79897 1.10622
6.80026 1.10688
6.80155 1.10895
6.80285 1.11245
6.80414 1.11846
6.80543 1.12005
6.80672 1.11989
6.80802 1.12178
6.80931 1.12534
6.8106 1.12925
6.81189 1.13341
6.81318 1.13384
6.81448 1.13742
6.81577 1.13964
6.81706 1.13985
6.81835 1.14176
6.81965 1.14403
6.82094 1.14658
6.82223 1.14769
6.82352 1.14791
6.82482 1.15026
6.82611 1.15102
6.8274 1.15015
6.82869 1.15215
6.82998 1.15381
6.83128 1.15348
6.83257 1.15438
6.83386 1.15668
6.83515 1.158
6.83645 1.15745
6.83774 1.15755
6.83903 1.15984
6.84032 1.16037
6.84162 1.16175
6.84291 1.16228
6.8442 1.16472
6.84549 1.16538
6.84678 1.16392
6.84808 1.164
6.84937 1.16498
6.85066 1.16448
6.85195 1.16255
6.85325 1.16181
6.85454 1.16406
6.85583 1.16396
6.85712 1.16032
6.85842 1.15673
6.85971 1.15721
6.861 1.15458
6.86229 1.15147
6.86358 1.14849
6.86488 1.14661
6.86617 1.1457
6.86746 1.142
6.86875 1.13723
6.87005 1.13394
6.87134 1.12983
6.87263 1.12686
6.87392 1.12299
6.87522 1.12185
6.87651 1.12139
6.8778 1.12052
6.87909 1.11941
6.88038 1.11916
6.88168 1.12098
6.88297 1.12267
6.88426 1.12653
6.88555 1.12754
6.88685 1.13245
6.88814 1.13797
6.88943 1.14272
6.89072 1.1477
6.89202 1.15322
6.89331 1.15785
6.8946 1.16165
6.89589 1.16641
6.89718 1.17015
6.89848 1.17443
6.89977 1.17672
6.90106 1.17861
6.90235 1.17712
6.90365 1.17749
6.90494 1.17691
6.90623 1.17547
6.90752 1.17339
6.90882 1.16981
6.91011 1.16631
6.9114 1.165
6.91269 1.16001
6.91398 1.15244
6.91528 1.14492
6.91657 1.13947
6.91786 1.13477
6.91915 1.12923
6.92045 1.12261
6.92174 1.11587
6.92303 1.1093
6.92432 1.10194
6.92562 1.09351
6.92691 1.08438
6.9282 1.08191
6.92949 1.08063
6.93078 1.07534
6.93208 1.07085
6.93337 1.06806
6.93466 1.06496
6.93595 1.0612
6.93725 1.05871
6.93854 1.05803
6.93983 1.05663
6.94112 1.05439
6.94242 1.05215
6.94371 1.05289
6.945 1.05172
6.94629 1.04746
6.94758 1.04531
6.94888 1.04323
6.95017 1.04064
6.95146 1.0381
6.95275 1.03479
6.95405 1.03125
6.95534 1.02779
6.95663 1.0312
6.95792 1.03088
6.95922 1.02828
6.96051 1.02779
6.9618 1.02958
6.96309 1.03198
6.96438 1.03226
6.96568 1.03168
6.96697 1.0336
6.96826 1.03707
6.96955 1.03985
6.97085 1.04212
6.97214 1.04563
6.97343 1.04761
6.97472 1.05181
6.97602 1.05463
6.97731 1.05714
6.9786 1.06134
6.97989 1.06517
6.98118 1.06792
6.98248 1.0725
6.98377 1.07617
6.98506 1.07964
6.98635 1.0827
6.98765 1.08406
6.98894 1.08547
6.99023 1.0895
6.99152 1.09086
6.99282 1.09177
6.99411 1.09288
6.9954 1.09383
6.99669 1.09495
6.99798 1.0927
6.99928 1.09116
7.00057 1.09235
7.00186 1.09281
7.00315 1.09277
7.00445 1.09305
7.00574 1.09219
7.00703 1.0896
7.00832 1.08609
7.00962 1.08418
7.01091 1.08468
7.0122 1.08415
7.01349 1.08026
7.01478 1.07474
7.01608 1.07177
7.01737 1.06889
7.01866 1.06342
7.01995 1.05643
7.02125 1.04887
7.02254 1.0426
7.02383 1.03655
7.02512 1.02988
7.02641 1.02435
7.02771 1.01878
7.029 1.01268
7.03029 1.00815
7.03158 0.999433
7.03288 0.996176
7.03417 0.991438
7.03546 0.985271
7.03675 0.979811
7.03805 0.975975
7.03934 0.973645
7.04063 0.972476
7.04192 0.971875
7.04321 0.970767
7.04451 0.965785
7.0458 0.963808
7.04709 0.95947
7.04838 0.958952
7.04968 0.956254
7.05097 0.953493
7.05226 0.952194
7.05355 0.95038
7.05485 0.948173
7.05614 0.948119
7.05743 0.94832
7.05872 0.948853
7.06001 0.947324
7.06131 0.949362
7.0626 0.952158
7.06389 0.950613
7.06518 0.950408
7.06648 0.953964
7.06777 0.958864
7.06906 0.963049
7.07035 0.966463
7.07165 0.96956
7.07294 0.974575
7.07423 0.981408
7.07552 0.987038
7.07681 0.996441
7.07811 1.00275
7.0794 1.00902
7.08069 1.01623
7.08198 1.02319
7.08328 1.02948
7.08457 1.03535
7.08586 1.04143
7.08715 1.04919
7.08845 1.05739
7.08974 1.06271
7.09103 1.06822
7.09232 1.07155
7.09361 1.07196
7.09491 1.07214
7.0962 1.07269
7.09749 1.07292
7.09878 1.07144
7.10008 1.06876
7.10137 1.06604
7.10266 1.06021
7.10395 1.05584
7.10525 1.05298
7.10654 1.04665
7.10783 1.03892
7.10912 1.03336
7.11041 1.02982
7.11171 1.02573
7.113 1.02126
7.11429 1.01908
7.11558 1.01948
7.11688 1.02002
7.11817 1.02177
7.11946 1.02196
7.12075 1.02621
7.12205 1.03168
7.12334 1.03771
7.12463 1.04253
7.12592 1.04643
7.12721 1.04978
7.12851 1.05289
7.1298 1.05629
7.13109 1.06013
7.13238 1.06332
7.13368 1.06496
7.13497 1.06539
7.13626 1.06409
7.13755 1.06204
7.13885 1.05807
7.14014 1.053
7.14143 1.04874
7.14272 1.04341
7.14401 1.03828
7.14531 1.03473
7.1466 1.03109
7.14789 1.02689
7.14918 1.01931
7.15048 1.01378
7.15177 1.00743
7.15306 1.00242
7.15435 0.998055
7.15565 0.994047
7.15694 0.989192
7.15823 0.985108
7.15952 0.982576
7.16081 0.98091
7.16211 0.979234
7.1634 0.976654
7.16469 0.976824
7.16598 0.979219
7.16728 0.981785
7.16857 0.985895
7.16986 0.989367
7.17115 0.993297
7.17245 1.00091
7.17374 1.00904
7.17503 1.01543
7.17632 1.02264
7.17761 1.03223
7.17891 1.04169
7.1802 1.05156
7.18149 1.06035
7.18278 1.06621
7.18408 1.07196
7.18537 1.07654
7.18666 1.08236
7.18795 1.08773
7.18925 1.09002
7.19054 1.089
7.19183 1.08687
7.19312 1.08483
7.19441 1.08111
7.19571 1.07589
7.197 1.06567
7.19829 1.05318
7.19958 1.04345
7.20088 1.03306
7.20217 1.02094
7.20346 1.01005
7.20475 0.99917
7.20605 0.989465
7.20734 0.981224
7.20863 0.971764
7.20992 0.964661
7.21121 0.960876
7.21251 0.958043
7.2138 0.956976
7.21509 0.960028
7.21638 0.963152
7.21768 0.967478
7.21897 0.97488
7.22026 0.983885
7.22155 0.99187
7.22285 0.999575
7.22414 1.00909
7.22543 1.01889
7.22672 1.02928
7.22801 1.03689
7.22931 1.04138
7.2306 1.04512
7.23189 1.04821
7.23318 1.05062
7.23448 1.05115
7.23577 1.05081
7.23706 1.05062
7.23835 1.05003
7.23965 1.04819
7.24094 1.04555
7.24223 1.04311
7.24352 1.03888
7.24481 1.03561
7.24611 1.03156
7.2474 1.02818
7.24869 1.02457
7.24998 1.02263
7.25128 1.02081
7.25257 1.01966
7.25386 1.01842
7.25515 1.01674
7.25645 1.01746
7.25774 1.01624
7.25903 1.01727
7.26032 1.01377
7.26161 1.01007
7.26291 1.00653
7.2642 1.00812
7.26549 1.00878
7.26678 1.00704
7.26808 1.00404
7.26937 1.00088
7.27066 0.999003
7.27195 0.999017
7.27325 0.998319
7.27454 0.996755
7.27583 0.996111
7.27712 0.997623
7.27841 0.997192
7.27971 0.998775
7.281 1.00147
7.28229 1.00499
7.28358 1.00842
7.28488 1.01049
7.28617 1.0135
7.28746 1.01971
7.28875 1.02534
7.29005 1.03118
7.29134 1.03224
7.29263 1.03534
7.29392 1.0383
7.29521 1.04369
7.29651 1.04789
7.2978 1.05176
7.29909 1.05472
7.30038 1.05774
7.30168 1.06354
7.30297 1.0691
7.30426 1.06879
7.30555 1.07067
7.30685 1.07405
7.30814 1.07594
7.30943 1.07732
7.31072 1.07794
7.31201 1.07685
7.31331 1.07305
7.3146 1.07075
7.31589 1.07001
7.31718 1.06772
7.31848 1.06422
7.31977 1.06109
7.32106 1.05546
7.32235 1.05053
7.32365 1.04803
7.32494 1.04236
7.32623 1.03631
7.32752 1.03156
7.32881 1.02771
7.33011 1.02126
7.3314 1.016
7.33269 1.01398
7.33398 1.01133
7.33528 1.00605
7.33657 1.0028
7.33786 1.00371
7.33915 1.00222
7.34045 1.0005
7.34174 0.998667
7.34303 1.00229
7.34432 1.001
7.34561 1.00111
7.34691 1.00361
7.3482 1.00565
7.34949 1.00714
7.35078 1.00921
7.35208 1.0112
7.35337 1.01309
7.35466 1.01574
7.35595 1.01783
7.35724 1.01976
7.35854 1.01769
7.35983 1.0153
7.36112 1.01675
7.36241 1.0192
7.36371 1.01722
7.365 1.01529
7.36629 1.01531
7.36758 1.01297
7.36888 1.01009
7.37017 1.01308
7.37146 1.01459
7.37275 1.01172
7.37404 1.01201
7.37534 1.01394
7.37663 1.01852
7.37792 1.01829
7.37921 1.01941
7.38051 1.02528
7.3818 1.03104
7.38309 1.03363
7.38438 1.03497
7.38568 1.03648
7.38697 1.03919
7.38826 1.04001
7.38955 1.04077
7.39084 1.04555
7.39214 1.04808
7.39343 1.04906
7.39472 1.05093
7.39601 1.05334
7.39731 1.05549
7.3986 1.05719
7.39989 1.05894
7.40118 1.06124
7.40248 1.06424
7.40377 1.06869
7.40506 1.07337
7.40635 1.07937
7.40764 1.08423
7.40894 1.08921
7.41023 1.09483
7.41152 1.10231
7.41281 1.10795
7.41411 1.11052
7.4154 1.1121
7.41669 1.11448
7.41798 1.11789
7.41928 1.12149
7.42057 1.12239
7.42186 1.12027
7.42315 1.11884
7.42444 1.11799
7.42574 1.11946
7.42703 1.11923
7.42832 1.11572
7.42961 1.11206
7.43091 1.10728
7.4322 1.10258
7.43349 1.09873
7.43478 1.09414
7.43608 1.09016
7.43737 1.0855
7.43866 1.081
7.43995 1.07955
7.44124 1.07412
7.44254 1.07036
7.44383 1.06833
7.44512 1.06499
7.44641 1.05944
7.44771 1.0551
7.449 1.05294
7.45029 1.05022
7.45158 1.04695
7.45288 1.04617
7.45417 1.04439
7.45546 1.03964
7.45675 1.03627
7.45804 1.0341
7.45934 1.0329
7.46063 1.03214
7.46192 1.02993
7.46321 1.02865
7.46451 1.02974
7.4658 1.03138
7.46709 1.03353
7.46838 1.03695
7.46968 1.03989
7.47097 1.04498
7.47226 1.0506
7.47355 1.05586
7.47484 1.06137
7.47614 1.06773
7.47743 1.07416
7.47872 1.08084
7.48001 1.08681
7.48131 1.09193
7.4826 1.09657
7.48389 1.10101
7.48518 1.10584
7.48648 1.11099
7.48777 1.11408
7.48906 1.11479
7.49035 1.11599
7.49164 1.11684
7.49294 1.11897
7.49423 1.11446
7.49552 1.11146
7.49681 1.10841
7.49811 1.10233
7.4994 1.09757
7.50069 1.09479
7.50198 1.08906
7.50328 1.08038
7.50457 1.07347
7.50586 1.06762
7.50715 1.06047
7.50844 1.05693
7.50974 1.05125
7.51103 1.04518
7.51232 1.04069
7.51361 1.03565
7.51491 1.0304
7.5162 1.02682
7.51749 1.02475
7.51878 1.02371
7.52008 1.02385
7.52137 1.02382
7.52266 1.02312
7.52395 1.02194
7.52524 1.0208
7.52654 1.02304
7.52783 1.02345
7.52912 1.02345
7.53041 1.02329
7.53171 1.02525
7.533 1.02765
7.53429 1.02846
7.53558 1.02806
7.53688 1.02801
7.53817 1.02832
7.53946 1.02791
7.54075 1.03053
7.54204 1.03655
7.54334 1.04021
7.54463 1.04199
7.54592 1.04458
7.54721 1.04738
7.54851 1.05175
7.5498 1.05642
7.55109 1.06171
7.55238 1.06648
7.55368 1.06999
7.55497 1.07464
7.55626 1.08148
7.55755 1.08835
7.55884 1.09436
7.56014 1.10023
7.56143 1.10457
7.56272 1.11276
7.56401 1.11732
7.56531 1.12287
7.5666 1.13006
7.56789 1.13652
7.56918 1.14128
7.57048 1.14529
7.57177 1.14878
7.57306 1.15056
7.57435 1.15163
7.57564 1.15567
7.57694 1.15765
7.57823 1.1581
7.57952 1.16172
7.58081 1.16332
7.58211 1.16453
7.5834 1.16239
7.58469 1.16186
7.58598 1.1618
7.58728 1.16047
7.58857 1.15985
7.58986 1.16073
7.59115 1.1614
7.59244 1.16195
7.59374 1.15958
7.59503 1.15768
7.59632 1.15407
7.59761 1.14985
7.59891 1.14892
7.6002 1.14737
7.60149 1.14302
7.60278 1.1391
7.60408 1.13474
7.60537 1.12862
7.60666 1.12288
7.60795 1.11779
7.60924 1.11014
7.61054 1.10257
7.61183 1.09803
7.61312 1.09419
7.61441 1.09032
7.61571 1.08372
7.617 1.07786
7.61829 1.07051
7.61958 1.06667
7.62088 1.06585
7.62217 1.06377
7.62346 1.05951
7.62475 1.05742
7.62604 1.05914
7.62734 1.05965
7.62863 1.05966
7.62992 1.06076
7.63121 1.06027
7.63251 1.05708
7.6338 1.061
7.63509 1.06245
7.63638 1.06002
7.63768 1.06022
7.63897 1.05947
7.64026 1.05627
7.64155 1.05335
7.64284 1.05125
7.64414 1.04728
7.64543 1.04065
7.64672 1.03447
7.64801 1.02893
7.64931 1.02164
7.6506 1.01516
7.65189 1.00988
7.65318 1.0014
7.65448 0.996915
7.65577 0.993414
7.65706 0.991114
7.65835 0.989333
7.65964 0.9878
7.66094 0.986536
7.66223 0.985947
7.66352 0.987132
7.66481 0.987788
7.66611 0.990801
7.6674 0.993748
7.66869 0.994697
7.66998 0.99737
7.67128 1.00143
7.67257 1.00648
7.67386 1.00982
7.67515 1.01273
7.67644 1.01677
7.67774 1.01974
7.67903 1.02102
7.68032 1.02198
7.68161 1.02207
7.68291 1.02321
7.6842 1.0261
7.68549 1.02917
7.68678 1.03122
7.68807 1.03199
7.68937 1.03432
7.69066 1.03518
7.69195 1.03497
7.69324 1.03675
7.69454 1.0378
7.69583 1.0391
7.69712 1.04126
7.69841 1.04291
7.69971 1.04379
7.701 1.04201
7.70229 1.04214
7.70358 1.04403
7.70487 1.04728
7.70617 1.05015
7.70746 1.05312
7.70875 1.05326
7.71004 1.0529
7.71134 1.05342
7.71263 1.05496
7.71392 1.05868
7.71521 1.06203
7.71651 1.06236
7.7178 1.06187
7.71909 1.06238
7.72038 1.06156
7.72167 1.05793
7.72297 1.05588
7.72426 1.05292
7.72555 1.0478
7.72684 1.04393
7.72814 1.04093
7.72943 1.03684
7.73072 1.0319
7.73201 1.02678
7.73331 1.02429
7.7346 1.02185
7.73589 1.01854
7.73718 1.01926
7.73847 1.01923
7.73977 1.01723
7.74106 1.02002
7.74235 1.02011
7.74364 1.0209
7.74494 1.0245
7.74623 1.02634
7.74752 1.03008
7.74881 1.03132
7.75011 1.03419
7.7514 1.03634
7.75269 1.03677
7.75398 1.03878
7.75527 1.04099
7.75657 1.0403
7.75786 1.04031
7.75915 1.0391
7.76044 1.03622
7.76174 1.03309
7.76303 1.0333
7.76432 1.03157
7.76561 1.0299
7.76691 1.02876
7.7682 1.02886
7.76949 1.02745
7.77078 1.02879
7.77207 1.03131
7.77337 1.03198
7.77466 1.03456
7.77595 1.03892
7.77724 1.0456
7.77854 1.05489
7.77983 1.06188
7.78112 1.07045
7.78241 1.07757
7.78371 1.08653
7.785 1.09275
7.78629 1.09969
7.78758 1.10353
7.78887 1.10804
7.79017 1.11067
7.79146 1.1104
7.79275 1.10908
7.79404 1.10479
7.79534 1.09963
7.79663 1.0957
7.79792 1.08698
7.79921 1.08087
7.80051 1.07002
7.8018 1.05975
7.80309 1.04944
7.80438 1.04038
7.80567 1.02933
7.80697 1.01914
7.80826 1.01038
7.80955 1.00119
7.81084 0.994502
7.81214 0.990986
7.81343 0.987414
7.81472 0.986046
7.81601 0.983919
7.81731 0.983414
7.8186 0.986725
7.81989 0.988864
7.82118 0.992293
7.82247 0.994143
7.82377 0.999585
7.82506 1.00363
7.82635 1.00899
7.82764 1.01355
7.82894 1.01726
7.83023 1.02243
7.83152 1.02675
7.83281 1.02819
7.83411 1.02876
7.8354 1.02448
7.83669 1.02606
7.83798 1.02341
7.83927 1.01867
7.84057 1.01375
7.84186 1.00827
7.84315 1.00478
7.84444 1.00245
7.84574 0.999248
7.84703 0.992438
7.84832 0.986026
7.84961 0.983614
7.85091 0.982231
7.8522 0.978774
7.85349 0.974599
7.85478 0.971202
7.85607 0.97233
7.85737 0.971106
7.85866 0.973243
7.85995 0.97742
7.86124 0.97767
7.86254 0.983054
7.86383 0.984666
7.86512 0.98964
7.86641 0.995195
7.86771 1.00093
7.869 1.00762
7.87029 1.01452
7.87158 1.02239
7.87287 1.03201
7.87417 1.04119
7.87546 1.04876
7.87675 1.05182
7.87804 1.05827
7.87934 1.06446
7.88063 1.06653
7.88192 1.06977
7.88321 1.07151
7.88451 1.07174
7.8858 1.07115
7.88709 1.0694
7.88838 1.06648
7.88967 1.06367
7.89097 1.06171
7.89226 1.06103
7.89355 1.06154
7.89484 1.05978
7.89614 1.05807
7.89743 1.05906
7.89872 1.05777
7.90001 1.06041
7.90131 1.06092
7.9026 1.0644
7.90389 1.06844
7.90518 1.0703
7.90647 1.07147
7.90777 1.0737
7.90906 1.07616
7.91035 1.0766
7.91164 1.07461
7.91294 1.07079
7.91423 1.06631
7.91552 1.06605
7.91681 1.06381
7.91811 1.05905
7.9194 1.05365
7.92069 1.04915
7.92198 1.04348
7.92327 1.0365
7.92457 1.02906
7.92586 1.021
7.92715 1.01329
7.92844 1.00657
7.92974 0.999006
7.93103 0.991033
7.93232 0.985755
7.93361 0.982029
7.93491 0.976308
7.9362 0.972086
7.93749 0.967572
7.93878 0.964956
7.94007 0.962448
7.94137 0.957367
7.94266 0.957232
7.94395 0.958599
7.94524 0.961821
7.94654 0.965429
7.94783 0.967539
7.94912 0.972277
7.95041 0.977332
7.95171 0.980529
7.953 0.985333
7.95429 0.99296
7.95558 1.00242
7.95687 1.01129
7.95817 1.01856
7.95946 1.02809
7.96075 1.03698
7.96204 1.04451
7.96334 1.05076
7.96463 1.05727
7.96592 1.06298
7.96721 1.06998
7.96851 1.07761
7.9698 1.08458
7.97109 1.08975
7.97238 1.09349
7.97367 1.09626
7.97497 1.09646
7.97626 1.09406
7.97755 1.09417
7.97884 1.09893
7.98014 1.09888
7.98143 1.0987
7.98272 1.10076
7.98401 1.10099
7.98531 1.09812
7.9866 1.09356
7.98789 1.09013
7.98918 1.08827
7.99047 1.08699
7.99177 1.08517
7.99306 1.08432
7.99435 1.08331
7.99564 1.07995
7.99694 1.07802
7.99823 1.07848
7.99952 1.07801
8.00081 1.07468
8.00211 1.07422
8.0034 1.0733
8.00469 1.07239
8.00598 1.07367
8.00727 1.07629
8.00857 1.07652
8.00986 1.07809
8.01115 1.08305
8.01244 1.08781
8.01374 1.08985
8.01503 1.09133
8.01632 1.09469
8.01761 1.09837
8.0189 1.10068
8.0202 1.10527
8.02149 1.11234
8.02278 1.11834
8.02407 1.12342
8.02537 1.12685
8.02666 1.1334
8.02795 1.13875
8.02924 1.14316
8.03054 1.14782
8.03183 1.15303
8.03312 1.15712
8.03441 1.15923
8.0357 1.16083
8.037 1.162
8.03829 1.16268
8.03958 1.16381
8.04087 1.16202
8.04217 1.15884
8.04346 1.1551
8.04475 1.15096
8.04604 1.14897
8.04734 1.14482
8.04863 1.14025
8.04992 1.13711
8.05121 1.13552
8.0525 1.13323
8.0538 1.13274
8.05509 1.13242
8.05638 1.12966
8.05767 1.12736
8.05897 1.12869
8.06026 1.13172
8.06155 1.13272
8.06284 1.1311
8.06414 1.1345
8.06543 1.13559
8.06672 1.13414
8.06801 1.13385
8.0693 1.13418
8.0706 1.13467
8.07189 1.1323
8.07318 1.12855
8.07447 1.12446
8.07577 1.12026
8.07706 1.11332
8.07835 1.10905
8.07964 1.10594
8.08094 1.09986
8.08223 1.09414
8.08352 1.08816
8.08481 1.08135
8.0861 1.07507
8.0874 1.06543
8.08869 1.05685
8.08998 1.05149
8.09127 1.04779
8.09257 1.04406
8.09386 1.03864
8.09515 1.03465
8.09644 1.02952
8.09774 1.02442
8.09903 1.02014
8.10032 1.0178
8.10161 1.01838
8.1029 1.01899
8.1042 1.01821
8.10549 1.01966
8.10678 1.02271
8.10807 1.02475
8.10937 1.02574
8.11066 1.02975
8.11195 1.03308
8.11324 1.03524
8.11454 1.03958
8.11583 1.04554
8.11712 1.05024
8.11841 1.05488
8.1197 1.0579
8.121 1.06129
8.12229 1.06517
8.12358 1.07047
8.12487 1.07421
8.12617 1.07551
8.12746 1.07857
8.12875 1.07982
8.13004 1.07832
8.13134 1.0797
8.13263 1.07941
8.13392 1.07867
8.13521 1.08024
8.1365 1.08109
8.1378 1.08211
8.13909 1.08244
8.14038 1.08052
8.14167 1.07806
8.14297 1.07458
8.14426 1.07181
8.14555 1.06895
8.14684 1.06427
8.14814 1.05993
8.14943 1.05814
8.15072 1.05635
8.15201 1.05267
8.1533 1.04976
8.1546 1.0466
8.15589 1.04319
8.15718 1.04042
8.15847 1.03988
8.15977 1.03831
8.16106 1.03919
8.16235 1.04176
8.16364 1.04505
8.16494 1.04547
8.16623 1.04677
8.16752 1.05142
8.16881 1.05662
8.1701 1.05851
8.1714 1.05994
8.17269 1.06452
8.17398 1.06982
8.17527 1.07413
8.17657 1.07337
8.17786 1.0752
8.17915 1.07732
8.18044 1.08035
8.18174 1.08242
8.18303 1.08421
8.18432 1.08505
8.18561 1.08585
8.1869 1.08534
8.1882 1.08708
8.18949 1.08704
8.19078 1.0876
8.19207 1.08802
8.19337 1.08826
8.19466 1.08744
8.19595 1.08445
8.19724 1.08258
8.19854 1.08061
8.19983 1.0781
8.20112 1.07551
8.20241 1.07272
8.2037 1.07023
8.205 1.06806
8.20629 1.06353
8.20758 1.05812
8.20887 1.05509
8.21017 1.0525
8.21146 1.05089
8.21275 1.05009
8.21404 1.04975
8.21534 1.05024
8.21663 1.04969
8.21792 1.04734
8.21921 1.04632
8.2205 1.04909
8.2218 1.05397
8.22309 1.05812
8.22438 1.0614
8.22567 1.06448
8.22697 1.06858
8.22826 1.07406
8.22955 1.07534
8.23084 1.07852
8.23214 1.08174
8.23343 1.08549
8.23472 1.0913
8.23601 1.09497
8.2373 1.09508
8.2386 1.09601
8.23989 1.09817
8.24118 1.09875
8.24247 1.09765
8.24377 1.0956
8.24506 1.09358
8.24635 1.09365
8.24764 1.09213
8.24894 1.09027
8.25023 1.08671
8.25152 1.08105
8.25281 1.07451
8.2541 1.06527
8.2554 1.05792
8.25669 1.05258
8.25798 1.04845
8.25927 1.04065
8.26057 1.03393
8.26186 1.02619
8.26315 1.02036
8.26444 1.01698
8.26574 1.01217
8.26703 1.00765
8.26832 1.00541
8.26961 1.00329
8.2709 1.00417
8.2722 1.006
8.27349 1.00675
8.27478 1.00598
8.27607 1.00896
8.27737 1.01493
8.27866 1.01707
8.27995 1.01907
8.28124 1.02461
8.28254 1.03198
8.28383 1.03406
8.28512 1.03831
8.28641 1.04279
8.2877 1.04667
8.289 1.05031
8.29029 1.05473
8.29158 1.05857
8.29287 1.05917
8.29417 1.05948
8.29546 1.06216
8.29675 1.06343
8.29804 1.06617
8.29934 1.06722
8.30063 1.06426
8.30192 1.06312
8.30321 1.06209
8.3045 1.05768
8.3058 1.05118
8.30709 1.04922
8.30838 1.0485
8.30967 1.04507
8.31097 1.04216
8.31226 1.03634
8.31355 1.0303
8.31484 1.02682
8.31614 1.02469
8.31743 1.02244
8.31872 1.01943
8.32001 1.01619
8.3213 1.01312
8.3226 1.01192
8.32389 1.01267
8.32518 1.01173
8.32647 1.0115
8.32777 1.00768
8.32906 1.00714
8.33035 1.00688
8.33164 1.00597
8.33294 1.00808
8.33423 1.0115
8.33552 1.01203
8.33681 1.01389
8.3381 1.01717
8.3394 1.01926
8.34069 1.0211
8.34198 1.02141
8.34327 1.02215
8.34457 1.02609
8.34586 1.02897
8.34715 1.03425
8.34844 1.03606
8.34973 1.04129
8.35103 1.04367
8.35232 1.04235
8.35361 1.04548
8.3549 1.04714
8.3562 1.04677
8.35749 1.04543
8.35878 1.04372
8.36007 1.04129
8.36137 1.03887
8.36266 1.03594
8.36395 1.03247
8.36524 1.02832
8.36653 1.02437
8.36783 1.01927
8.36912 1.01322
8.37041 1.00931
8.3717 1.00611
8.373 1.00214
8.37429 0.998067
8.37558 0.992285
8.37687 0.988283
8.37817 0.987171
8.37946 0.981187
8.38075 0.978095
8.38204 0.976042
8.38333 0.973272
8.38463 0.971576
8.38592 0.970068
8.38721 0.968183
8.3885 0.965653
8.3898 0.963898
8.39109 0.962759
8.39238 0.960087
8.39367 0.956345
8.39497 0.953736
8.39626 0.952727
8.39755 0.952022
8.39884 0.950797
8.40013 0.950779
8.40143 0.951455
8.40272 0.954429
8.40401 0.952402
8.4053 0.951264
8.4066 0.949381
8.40789 0.954741
8.40918 0.956404
8.41047 0.959698
8.41177 0.963249
8.41306 0.971249
8.41435 0.976149
8.41564 0.983637
8.41693 0.988134
8.41823 0.990651
8.41952 0.99508
8.42081 1.00126
8.4221 1.00469
8.4234 1.00643
8.42469 1.01262
8.42598 1.01782
8.42727 1.02101
8.42857 1.02317
8.42986 1.02518
8.43115 1.02732
8.43244 1.02902
8.43373 1.02869
8.43503 1.029
8.43632 1.03153
8.43761 1.03004
8.4389 1.03002
8.4402 1.02848
8.44149 1.02944
8.44278 1.03053
8.44407 1.03061
8.44537 1.02954
8.44666 1.0304
8.44795 1.03278
8.44924 1.03508
8.45053 1.03725
8.45183 1.03919
8.45312 1.04356
8.45441 1.04941
8.4557 1.05348
8.457 1.05458
8.45829 1.06033
8.45958 1.06492
8.46087 1.07246
8.46217 1.07925
8.46346 1.08241
8.46475 1.09046
8.46604 1.09644
8.46733 1.10263
8.46863 1.10467
8.46992 1.10746
8.47121 1.1122
8.4725 1.11819
8.4738 1.12029
8.47509 1.12158
8.47638 1.12294
8.47767 1.12228
8.47897 1.12104
8.48026 1.1189
8.48155 1.11712
8.48284 1.11287
8.48413 1.10574
8.48543 1.10192
8.48672 1.09793
8.48801 1.09651
8.4893 1.09311
8.4906 1.0897
8.49189 1.08422
8.49318 1.08057
8.49447 1.07711
8.49577 1.07506
8.49706 1.07334
8.49835 1.07172
8.49964 1.0691
8.50093 1.06556
8.50223 1.06263
8.50352 1.05876
8.50481 1.05201
8.5061 1.04655
8.5074 1.04509
8.50869 1.04108
8.50998 1.03382
8.51127 1.03103
8.51257 1.0231
8.51386 1.01335
8.51515 1.00851
8.51644 0.997666
8.51773 0.985964
8.51903 0.981114
8.52032 0.972713
8.52161 0.964986
8.5229 0.958872
8.5242 0.952418
8.52549 0.945635
8.52678 0.941373
8.52807 0.936623
8.52937 0.934334
8.53066 0.934146
8.53195 0.933339
8.53324 0.932746
8.53453 0.935106
8.53583 0.939537
8.53712 0.943389
8.53841 0.947082
8.5397 0.952168
8.541 0.959495
8.54229 0.96665
8.54358 0.974347
8.54487 0.978921
8.54617 0.983343
8.54746 0.99059
8.54875 0.995319
8.55004 1.00325
8.55133 1.00452
8.55263 1.00383
8.55392 1.00764
8.55521 1.01203
8.5565 1.01352
8.5578 1.01113
8.55909 1.01098
8.56038 1.01357
8.56167 1.01762
8.56297 1.02151
8.56426 1.02166
8.56555 1.01949
8.56684 1.01962
8.56813 1.02138
8.56943 1.02344
8.57072 1.02623
8.57201 1.0278
8.5733 1.02728
8.5746 1.02851
8.57589 1.03255
8.57718 1.03418
8.57847 1.03223
8.57977 1.03045
8.58106 1.02847
8.58235 1.02669
8.58364 1.02525
8.58493 1.02453
8.58623 1.02462
8.58752 1.02596
8.58881 1.02676
8.5901 1.02633
8.5914 1.02567
8.59269 1.02611
8.59398 1.02825
8.59527 1.03004
8.59657 1.02901
8.59786 1.02635
8.59915 1.0247
8.60044 1.02421
8.60173 1.02327
8.60303 1.02001
8.60432 1.01825
8.60561 1.01564
8.6069 1.0152
8.6082 1.0135
8.60949 1.01017
8.61078 1.00716
8.61207 1.00611
8.61337 1.00527
8.61466 1.00372
8.61595 1.00602
8.61724 1.00646
8.61853 1.00915
8.61983 1.01755
8.62112 1.02509
8.62241 1.03282
8.6237 1.04035
8.625 1.04683
8.62629 1.0548
8.62758 1.06451
8.62887 1.07337
8.63017 1.08171
8.63146 1.09227
8.63275 1.10312
8.63404 1.11131
8.63533 1.1167
8.63663 1.12138
8.63792 1.12675
8.63921 1.12683
8.6405 1.12504
8.6418 1.1237
8.64309 1.1226
8.64438 1.12018
8.64567 1.11715
8.64697 1.1148
8.64826 1.10949
8.64955 1.10329
8.65084 1.09717
8.65213 1.09215
8.65343 1.08977
8.65472 1.08622
8.65601 1.07959
8.6573 1.07478
8.6586 1.07295
8.65989 1.07146
8.66118 1.06862
8.66247 1.06525
8.66377 1.06423
8.66506 1.06298
8.66635 1.06188
8.66764 1.05753
8.66893 1.05337
8.67023 1.05196
8.67152 1.05234
8.67281 1.05269
8.6741 1.05001
8.6754 1.04766
8.67669 1.04751
8.67798 1.04611
8.67927 1.04351
8.68057 1.04246
8.68186 1.04128
8.68315 1.04138
8.68444 1.03883
8.68573 1.03537
8.68703 1.03471
8.68832 1.03173
8.68961 1.02698
8.6909 1.02324
8.6922 1.01935
8.69349 1.0143
8.69478 1.00939
8.69607 1.00572
8.69736 1.00225
8.69866 0.999251
8.69995 0.993335
8.70124 0.986725
8.70253 0.981849
8.70383 0.976724
8.70512 0.97028
8.70641 0.964517
8.7077 0.960497
8.709 0.957298
8.71029 0.953821
8.71158 0.952863
8.71287 0.951333
8.71416 0.949306
8.71546 0.947619
8.71675 0.947884
8.71804 0.950793
8.71933 0.95106
8.72063 0.953309
8.72192 0.956798
8.72321 0.96091
8.7245 0.965171
8.7258 0.97275
8.72709 0.982555
8.72838 0.990684
8.72967 0.999032
8.73096 1.00771
8.73226 1.01687
8.73355 1.02535
8.73484 1.03429
8.73613 1.04594
8.73743 1.05616
8.73872 1.06121
8.74001 1.0708
8.7413 1.0785
8.7426 1.08246
8.74389 1.08963
8.74518 1.09263
8.74647 1.09548
8.74776 1.0959
8.74906 1.09522
8.75035 1.09917
8.75164 1.10061
8.75293 1.09841
8.75423 1.09544
8.75552 1.09484
8.75681 1.09286
8.7581 1.09007
8.7594 1.08688
8.76069 1.08326
8.76198 1.08111
8.76327 1.08188
8.76456 1.08341
8.76586 1.08176
8.76715 1.07748
8.76844 1.07387
8.76973 1.07312
8.77103 1.07262
8.77232 1.07176
8.77361 1.06749
8.7749 1.06142
8.7762 1.06043
8.77749 1.05883
8.77878 1.05656
8.78007 1.04856
8.78136 1.04697
8.78266 1.04312
8.78395 1.04085
8.78524 1.03416
8.78653 1.03097
8.78783 1.02653
8.78912 1.02521
8.79041 1.02339
8.7917 1.02017
8.793 1.01735
8.79429 1.01717
8.79558 1.01839
8.79687 1.0182
8.79816 1.01748
8.79946 1.01693
8.80075 1.01666
8.80204 1.01721
8.80333 1.01706
8.80463 1.0167
8.80592 1.01566
8.80721 1.01052
8.8085 1.00557
8.8098 1.00615
8.81109 1.00363
8.81238 0.999674
8.81367 0.99428
8.81496 0.993313
8.81626 0.990841
8.81755 0.994373
8.81884 0.98391
8.82013 0.978851
8.82143 0.972965
8.82272 0.971112
8.82401 0.969891
8.8253 0.969205
8.8266 0.967413
8.82789 0.967045
8.82918 0.968455
8.83047 0.968154
8.83176 0.964505
8.83306 0.962745
8.83435 0.963631
8.83564 0.964676
8.83693 0.963126
8.83823 0.962252
8.83952 0.963471
8.84081 0.962966
8.8421 0.962884
8.8434 0.961254
8.84469 0.958791
8.84598 0.955808
8.84727 0.954507
8.84856 0.954813
8.84986 0.95544
8.85115 0.951996
8.85244 0.946439
8.85373 0.945142
8.85503 0.946137
8.85632 0.942213
8.85761 0.939944
8.8589 0.938602
8.8602 0.937514
8.86149 0.936034
8.86278 0.935732
8.86407 0.935381
8.86536 0.94045
8.86666 0.944965
8.86795 0.949457
8.86924 0.956711
8.87053 0.964292
8.87183 0.97123
8.87312 0.978288
8.87441 0.987992
8.8757 0.998356
8.877 1.0052
8.87829 1.01226
8.87958 1.02303
8.88087 1.03303
8.88216 1.03936
8.88346 1.04333
8.88475 1.04835
8.88604 1.05559
8.88733 1.05998
8.88863 1.06279
8.88992 1.06881
8.89121 1.07439
8.8925 1.0763
8.8938 1.07321
8.89509 1.07682
8.89638 1.07805
8.89767 1.07288
8.89896 1.06548
8.90026 1.06999
8.90155 1.06911
8.90284 1.06028
8.90413 1.05641
8.90543 1.0518
8.90672 1.04457
8.90801 1.03571
8.9093 1.02854
8.9106 1.02178
8.91189 1.01686
8.91318 1.00833
8.91447 1.0006
8.91576 0.996425
8.91706 0.988728
8.91835 0.979327
8.91964 0.973907
8.92093 0.970879
8.92223 0.965803
8.92352 0.957385
8.92481 0.950379
8.9261 0.945173
8.9274 0.939139
8.92869 0.932392
8.92998 0.923218
8.93127 0.916129
8.93256 0.912761
8.93386 0.904886
8.93515 0.896635
8.93644 0.895083
8.93773 0.885475
8.93903 0.877353
8.94032 0.870388
8.94161 0.867369
8.9429 0.866657
8.9442 0.866482
8.94549 0.868059
8.94678 0.871682
8.94807 0.872537
8.94936 0.874471
8.95066 0.878457
8.95195 0.884843
8.95324 0.889996
8.95453 0.897766
8.95583 0.91092
8.95712 0.921708
8.95841 0.930719
8.9597 0.942521
8.961 0.955781
8.96229 0.966119
8.96358 0.977077
8.96487 0.990118
8.96616 1.00128
8.96746 1.0133
8.96875 1.02662
8.97004 1.03869
8.97133 1.04816
8.97263 1.05504
8.97392 1.06453
8.97521 1.07203
8.9765 1.07682
8.9778 1.08017
8.97909 1.0849
8.98038 1.09174
8.98167 1.092
8.98296 1.09166
8.98426 1.09485
8.98555 1.09536
8.98684 1.09506
8.98813 1.09499
8.98943 1.09494
8.99072 1.09364
8.99201 1.09168
8.9933 1.09217
8.9946 1.09254
8.99589 1.08901
8.99718 1.08724
8.99847 1.08499
8.99976 1.07906
9.00106 1.07503
9.00235 1.07248
9.00364 1.07132
9.00493 1.06916
9.00623 1.06583
9.00752 1.06485
9.00881 1.06168
9.0101 1.05536
9.0114 1.05109
9.01269 1.04925
9.01398 1.04765
9.01527 1.04476
9.01656 1.04167
9.01786 1.03926
9.01915 1.03773
9.02044 1.03436
9.02173 1.02997
9.02303 1.02852
9.02432 1.02476
9.02561 1.02008
9.0269 1.0202
9.02819 1.01705
9.02949 1.01095
9.03078 1.00854
9.03207 1.00686
9.03336 1.0042
9.03466 1.00272
9.03595 1.0021
9.03724 1.00304
9.03853 1.00311
9.03983 1.00173
9.04112 1.00152
9.04241 1.00497
9.0437 1.00798
9.04499 1.00884
9.04629 1.01088
9.04758 1.01754
9.04887 1.02035
9.05016 1.02284
9.05146 1.02569
9.05275 1.03096
9.05404 1.03688
9.05533 1.04036
9.05663 1.04277
9.05792 1.047
9.05921 1.0509
9.0605 1.05525
9.06179 1.06261
9.06309 1.0703
9.06438 1.07415
9.06567 1.07677
9.06696 1.08288
9.06826 1.0873
9.06955 1.09143
9.07084 1.09663
9.07213 1.10132
9.07343 1.10446
9.07472 1.11046
9.07601 1.11751
9.0773 1.1216
9.07859 1.12219
9.07989 1.1266
9.08118 1.13255
9.08247 1.13678
9.08376 1.1336
9.08506 1.13426
9.08635 1.13602
9.08764 1.13225
9.08893 1.1334
9.09023 1.1358
9.09152 1.12984
9.09281 1.12573
9.0941 1.12411
9.09539 1.11891
9.09669 1.10878
9.09798 1.10212
9.09927 1.09903
9.10056 1.09262
9.10186 1.08546
9.10315 1.08172
9.10444 1.0757
9.10573 1.06755
9.10703 1.06106
9.10832 1.05659
9.10961 1.05308
9.1109 1.05087
9.11219 1.04689
9.11349 1.04075
9.11478 1.03633
9.11607 1.03411
9.11736 1.03229
9.11866 1.02933
9.11995 1.02609
9.12124 1.02643
9.12253 1.02906
9.12383 1.03072
9.12512 1.03497
9.12641 1.0407
9.1277 1.04318
9.12899 1.04781
9.13029 1.05421
9.13158 1.05845
9.13287 1.06245
9.13416 1.06896
9.13546 1.07023
9.13675 1.07174
9.13804 1.07714
9.13933 1.07777
9.14063 1.07887
9.14192 1.08252
9.14321 1.08463
9.1445 1.08463
9.14579 1.0831
9.14709 1.08906
9.14838 1.09139
9.14967 1.09134
9.15096 1.09683
9.15226 1.0941
9.15355 1.09503
9.15484 1.09854
9.15613 1.09817
9.15743 1.09694
9.15872 1.09705
9.16001 1.09469
9.1613 1.09368
9.16259 1.09513
9.16389 1.09442
9.16518 1.09085
9.16647 1.08746
9.16776 1.08483
9.16906 1.08193
9.17035 1.08125
9.17164 1.08043
9.17293 1.07872
9.17423 1.07799
9.17552 1.07797
9.17681 1.07641
9.1781 1.07478
9.17939 1.07472
9.18069 1.07204
9.18198 1.06739
9.18327 1.06352
9.18456 1.05911
9.18586 1.05383
9.18715 1.04988
9.18844 1.04506
9.18973 1.03689
9.19103 1.03
9.19232 1.02837
9.19361 1.02664
9.1949 1.02385
9.19619 1.01983
9.19749 1.01835
9.19878 1.01765
9.20007 1.01562
9.20136 1.01215
9.20266 1.01019
9.20395 1.00678
9.20524 1.0001
9.20653 0.999307
9.20783 0.996284
9.20912 0.994037
9.21041 0.992861
9.2117 0.988384
9.21299 0.982552
9.21429 0.980913
9.21558 0.980052
9.21687 0.979539
9.21816 0.980551
9.21946 0.982497
9.22075 0.985821
9.22204 0.98905
9.22333 0.995206
9.22463 1.00305
9.22592 1.00932
9.22721 1.0174
9.2285 1.02906
9.22979 1.03725
9.23109 1.04388
9.23238 1.05228
9.23367 1.05657
9.23496 1.06285
9.23626 1.06904
9.23755 1.06997
9.23884 1.07113
9.24013 1.07188
9.24143 1.06869
9.24272 1.0628
9.24401 1.05832
9.2453 1.05473
9.24659 1.05029
9.24789 1.04793
9.24918 1.04263
9.25047 1.03346
9.25176 1.0286
9.25306 1.02506
9.25435 1.0223
9.25564 1.02147
9.25693 1.02133
9.25823 1.0236
9.25952 1.02755
9.26081 1.02867
9.2621 1.0287
9.26339 1.031
9.26469 1.0315
9.26598 1.03617
9.26727 1.03783
9.26856 1.03844
9.26986 1.03886
9.27115 1.03381
9.27244 1.03098
9.27373 1.02534
9.27503 1.02165
9.27632 1.01423
9.27761 1.00851
9.2789 1.00859
9.28019 1.00529
9.28149 1.00335
9.28278 1.00648
9.28407 1.00621
9.28536 1.00358
9.28666 1.01007
9.28795 1.01376
9.28924 1.02063
9.29053 1.02453
9.29183 1.03093
9.29312 1.04288
9.29441 1.04955
9.2957 1.05351
9.29699 1.05812
9.29829 1.06072
9.29958 1.06389
9.30087 1.06295
9.30216 1.0642
9.30346 1.06307
9.30475 1.05862
9.30604 1.05737
9.30733 1.05789
9.30863 1.05441
9.30992 1.04924
9.31121 1.04454
9.3125 1.03921
9.31379 1.03518
9.31509 1.03396
9.31638 1.03032
9.31767 1.02525
9.31896 1.0208
9.32026 1.01679
9.32155 1.01178
9.32284 1.00624
9.32413 1.00273
9.32543 1.00325
9.32672 1.00204
9.32801 0.996336
9.3293 0.991402
9.33059 0.987149
9.33189 0.982144
9.33318 0.976265
9.33447 0.970565
9.33576 0.969347
9.33706 0.971117
9.33835 0.968827
9.33964 0.967105
9.34093 0.965062
9.34223 0.96279
9.34352 0.960979
9.34481 0.954625
9.3461 0.951235
9.34739 0.95021
9.34869 0.946837
9.34998 0.943704
9.35127 0.941951
9.35256 0.939739
9.35386 0.938834
9.35515 0.937761
9.35644 0.936529
9.35773 0.935637
9.35902 0.93375
9.36032 0.939747
9.36161 0.949217
9.3629 0.95254
9.36419 0.957585
9.36549 0.962835
9.36678 0.964578
9.36807 0.968799
9.36936 0.972241
9.37066 0.977758
9.37195 0.983832
9.37324 0.981722
9.37453 0.988903
9.37582 0.986184
9.37712 0.983159
9.37841 0.983918
9.3797 0.981069
9.38099 0.976507
9.38229 0.97641
9.38358 0.969356
9.38487 0.96132
9.38616 0.957852
9.38746 0.94983
9.38875 0.945011
9.39004 0.940673
9.39133 0.935125
9.39262 0.933159
9.39392 0.931489
9.39521 0.928164
9.3965 0.927814
9.39779 0.927688
9.39909 0.929536
9.40038 0.930598
9.40167 0.934174
9.40296 0.938422
9.40426 0.943388
9.40555 0.948378
9.40684 0.955051
9.40813 0.962979
9.40942 0.968653
9.41072 0.97118
9.41201 0.975311
9.4133 0.977904
9.41459 0.975353
9.41589 0.975327
9.41718 0.977919
9.41847 0.980271
9.41976 0.979793
9.42106 0.978075
9.42235 0.976843
9.42364 0.974342
9.42493 0.972095
9.42622 0.970937
9.42752 0.969284
9.42881 0.968347
9.4301 0.96943
9.43139 0.971472
9.43269 0.972862
9.43398 0.974218
9.43527 0.974141
9.43656 0.972664
9.43786 0.973883
9.43915 0.975784
9.44044 0.975927
9.44173 0.975107
9.44302 0.97319
9.44432 0.972633
9.44561 0.972814
9.4469 0.971932
9.44819 0.973232
9.44949 0.97446
9.45078 0.974804
9.45207 0.979023
9.45336 0.984494
9.45466 0.992299
9.45595 0.998335
9.45724 1.00104
9.45853 1.00752
9.45982 1.0144
9.46112 1.01698
9.46241 1.01928
9.4637 1.02427
9.46499 1.02706
9.46629 1.02543
9.46758 1.0236
9.46887 1.02003
9.47016 1.01449
9.47146 1.01127
9.47275 1.00581
9.47404 0.998957
9.47533 0.989651
9.47662 0.979678
9.47792 0.974365
9.47921 0.971361
9.4805 0.962558
9.48179 0.955158
9.48309 0.950997
9.48438 0.948615
9.48567 0.948355
9.48696 0.940268
9.48826 0.938723
9.48955 0.938945
9.49084 0.940077
9.49213 0.942929
9.49342 0.944529
9.49472 0.94533
9.49601 0.950456
9.4973 0.952967
9.49859 0.954486
9.49989 0.952267
9.50118 0.955059
9.50247 0.954887
9.50376 0.95319
9.50506 0.956016
9.50635 0.952792
9.50764 0.946109
9.50893 0.943093
9.51022 0.939609
9.51152 0.935494
9.51281 0.926486
9.5141 0.921535
9.51539 0.911176
9.51669 0.904747
9.51798 0.902677
9.51927 0.900637
9.52056 0.898247
9.52186 0.897013
9.52315 0.896107
9.52444 0.903434
9.52573 0.908716
9.52702 0.914503
9.52832 0.920109
9.52961 0.931219
9.5309 0.94389
9.53219 0.955032
9.53349 0.967861
9.53478 0.977167
9.53607 0.984982
9.53736 0.993356
9.53866 1.00014
9.53995 1.01259
9.54124 1.01901
9.54253 1.02614
9.54382 1.03535
9.54512 1.04178
9.54641 1.04589
9.5477 1.04739
9.54899 1.05064
9.55029 1.0517
9.55158 1.0523
9.55287 1.05517
9.55416 1.05859
9.55546 1.05705
9.55675 1.05738
9.55804 1.0576
9.55933 1.0576
9.56062 1.05324
9.56192 1.05248
9.56321 1.05649
9.5645 1.05582
9.56579 1.05448
9.56709 1.05657
9.56838 1.05979
9.56967 1.06316
9.57096 1.0692
9.57226 1.07387
9.57355 1.07894
9.57484 1.07978
9.57613 1.08136
9.57742 1.08264
9.57872 1.08208
9.58001 1.07996
9.5813 1.07844
9.58259 1.07268
9.58389 1.06686
9.58518 1.05836
9.58647 1.04735
9.58776 1.03362
9.58906 1.02104
9.59035 1.01102
9.59164 0.999596
9.59293 0.987107
9.59422 0.976326
9.59552 0.963143
9.59681 0.95171
9.5981 0.940714
9.59939 0.934522
9.60069 0.926688
9.60198 0.922339
9.60327 0.918322
9.60456 0.919061
9.60586 0.918647
9.60715 0.918495
9.60844 0.919878
9.60973 0.919225
9.61102 0.922367
9.61232 0.926683
9.61361 0.931172
9.6149 0.937555
9.61619 0.946101
9.61749 0.952661
9.61878 0.956388
9.62007 0.966049
9.62136 0.975787
9.62266 0.98342
9.62395 0.990658
9.62524 0.992435
9.62653 0.998079
9.62782 1.00061
9.62912 1.00634
9.63041 1.01209
9.6317 1.01429
9.63299 1.01446
9.63429 1.01302
9.63558 1.01427
9.63687 1.01247
9.63816 1.00937
9.63946 1.00406
9.64075 0.997067
9.64204 0.991998
9.64333 0.990635
9.64462 0.98795
9.64592 0.984648
9.64721 0.98198
9.6485 0.97795
9.64979 0.975839
9.65109 0.976932
9.65238 0.977474
9.65367 0.979746
9.65496 0.984129
9.65626 0.987286
9.65755 0.99279
9.65884 0.995978
9.66013 0.997597
9.66142 1.00195
9.66272 1.00828
9.66401 1.0107
9.6653 1.01002
9.66659 1.00927
9.66789 1.00743
9.66918 1.00167
9.67047 0.995512
9.67176 0.988304
9.67306 0.982908
9.67435 0.975966
9.67564 0.966533
9.67693 0.964223
9.67822 0.960035
9.67952 0.954983
9.68081 0.950232
9.6821 0.949374
9.68339 0.947695
9.68469 0.948897
9.68598 0.953434
9.68727 0.958902
9.68856 0.96301
9.68985 0.970547
9.69115 0.979138
9.69244 0.982908
9.69373 0.988573
9.69502 0.990767
9.69632 0.993633
9.69761 0.992755
9.6989 0.990954
9.70019 0.990942
9.70149 0.987311
9.70278 0.982933
9.70407 0.975927
9.70536 0.967597
9.70665 0.963601
9.70795 0.9596
9.70924 0.955233
9.71053 0.954565
9.71182 0.952481
9.71312 0.952039
9.71441 0.952423
9.7157 0.954777
9.71699 0.957123
9.71829 0.958296
9.71958 0.960749
9.72087 0.961495
9.72216 0.963115
9.72345 0.960945
9.72475 0.958923
9.72604 0.957114
9.72733 0.95455
9.72862 0.948132
9.72992 0.938865
9.73121 0.932676
9.7325 0.928626
9.73379 0.921649
9.73509 0.917384
9.73638 0.917992
9.73767 0.915937
9.73896 0.918441
9.74025 0.920218
9.74155 0.925582
9.74284 0.926919
9.74413 0.939748
9.74542 0.944881
9.74672 0.9548
9.74801 0.971363
9.7493 0.986822
9.75059 0.997988
9.75189 1.00491
9.75318 1.0178
9.75447 1.02952
9.75576 1.04205
9.75705 1.04873
9.75835 1.05868
9.75964 1.06271
9.76093 1.06379
9.76222 1.06229
9.76352 1.06314
9.76481 1.05858
9.7661 1.05803
9.76739 1.05685
9.76869 1.05015
9.76998 1.0389
9.77127 1.02174
9.77256 1.01419
9.77385 1.00379
9.77515 0.998524
9.77644 0.988503
9.77773 0.979406
9.77902 0.96993
9.78032 0.963838
9.78161 0.959409
9.7829 0.956015
9.78419 0.946975
9.78549 0.946598
9.78678 0.940524
9.78807 0.942449
9.78936 0.93864
9.79065 0.938444
9.79195 0.935235
9.79324 0.941087
9.79453 0.937156
9.79582 0.937987
9.79712 0.938198
9.79841 0.940774
9.7997 0.946705
9.80099 0.948991
9.80229 0.946601
9.80358 0.950599
9.80487 0.952963
9.80616 0.953298
9.80745 0.954335
9.80875 0.951364
9.81004 0.957032
9.81133 0.961594
9.81262 0.959908
9.81392 0.958935
9.81521 0.955767
9.8165 0.956582
9.81779 0.959323
9.81909 0.962271
9.82038 0.968507
9.82167 0.967197
9.82296 0.972277
9.82425 0.975621
9.82555 0.977739
9.82684 0.981065
9.82813 0.985546
9.82942 0.988105
9.83072 0.99248
9.83201 0.992909
9.8333 0.994691
9.83459 0.99586
9.83589 0.993537
9.83718 0.987761
9.83847 0.981922
9.83976 0.979763
9.84105 0.97794
9.84235 0.973431
9.84364 0.970028
9.84493 0.965687
9.84622 0.963131
9.84752 0.960372
9.84881 0.956489
9.8501 0.957066
9.85139 0.9562
9.85269 0.954419
9.85398 0.95769
9.85527 0.960307
9.85656 0.960972
9.85785 0.965151
9.85915 0.971534
9.86044 0.979352
9.86173 0.983569
9.86302 0.988994
9.86432 0.99599
9.86561 1.00049
9.8669 1.00149
9.86819 1.00479
9.86949 1.00468
9.87078 1.00436
9.87207 1.00486
9.87336 1.00371
9.87465 1.00275
9.87595 1.00014
9.87724 0.994361
9.87853 0.988106
9.87982 0.979006
9.88112 0.968627
9.88241 0.960248
9.8837 0.951406
9.88499 0.941454
9.88629 0.933386
9.88758 0.925827
9.88887 0.916024
9.89016 0.90775
9.89145 0.899491
9.89275 0.891753
9.89404 0.883879
9.89533 0.877675
9.89662 0.871815
9.89792 0.870113
9.89921 0.87133
9.9005 0.872672
9.90179 0.868339
9.90309 0.867611
9.90438 0.868326
9.90567 0.867854
9.90696 0.866907
9.90825 0.866917
9.90955 0.867745
9.91084 0.868691
9.91213 0.870874
9.91342 0.875461
9.91472 0.876617
9.91601 0.881792
9.9173 0.885326
9.91859 0.88902
9.91989 0.892981
9.92118 0.900145
9.92247 0.902704
9.92376 0.90689
9.92505 0.909879
9.92635 0.912292
9.92764 0.915819
9.92893 0.920439
9.93022 0.926656
9.93152 0.928579
9.93281 0.934034
9.9341 0.933743
9.93539 0.94311
9.93669 0.947466
9.93798 0.95507
9.93927 0.959419
9.94056 0.967456
9.94185 0.969036
9.94315 0.972776
9.94444 0.976634
9.94573 0.977415
9.94702 0.980615
9.94832 0.982743
9.94961 0.984236
9.9509 0.972455
9.95219 0.964495
9.95349 0.958791
9.95478 0.955801
9.95607 0.953546
9.95736 0.947493
9.95865 0.933606
9.95995 0.923464
9.96124 0.922786
9.96253 0.918885
9.96382 0.91419
9.96512 0.90938
9.96641 0.908195
9.9677 0.911701
9.96899 0.914716
9.97029 0.918597
9.97158 0.924948
9.97287 0.935302
9.97416 0.94766
9.97545 0.956827
9.97675 0.966883
9.97804 0.977673
9.97933 0.98694
9.98062 0.994256
9.98192 1.00062
9.98321 1.00852
9.9845 1.01607
9.98579 1.02122
9.98709 1.02761
9.98838 1.03335
9.98967 1.03496
9.99096 1.03525
9.99225 1.03607
9.99355 1.03992
9.99484 1.04393
9.99613 1.04601
9.99742 1.04911
9.99872 1.04955
